Data from Subt14__4__10-14-52-086.txt Node

Date: Mon Feb 19 10:14:52 CET 2024
User: Versuch 234
Spectrometer: USB4F03543
Trigger mode: 4
Integration Time (sec): 1,000000E-1
Scans to average: 10
Electric dark correction enabled: true
Nonlinearity correction enabled: false
Boxcar width: 0
XAxis mode: Wavelengths
Number of Pixels in Spectrum: 3648
>>>>>Begin Spectral Data<<<<<
179,969	-23,55
180,181	-23,55
180,394	-23,55
180,606	-5,12
180,819	0,41
181,031	-12,9
181,243	-0,61
181,456	-13,31
181,668	30,51
181,88	32,97
182,093	2,46
182,305	-11,88
182,518	23,35
182,73	-29,29
182,942	5,32
183,155	-16,79
183,367	-9,83
183,579	8,81
183,791	-4,3
184,004	-14,13
184,216	11,26
184,428	17,2
184,641	2,46
184,853	-7,99
185,065	3,07
185,277	16,18
185,49	45,67
185,702	-36,04
185,914	2,87
186,126	-12,7
186,338	-15,97
186,551	-3,89
186,763	4,1
186,975	8,4
187,187	-0,61
187,399	2,66
187,612	3,48
187,824	-14,95
188,036	-6,35
188,248	13,52
188,46	10,24
188,672	7,17
188,885	-31,33
189,097	-3,28
189,309	-11,88
189,521	-4,71
189,733	9,83
189,945	14,34
190,157	4,1
190,369	3,28
190,581	-31,95
190,794	13,31
191,006	35,43
191,218	-8,19
191,43	2,66
191,642	-4,71
191,854	2,05
192,066	0,82
192,278	-11,06
192,49	-10,85
192,702	14,95
192,914	-2,66
193,126	-0,2
193,338	-0,82
193,55	-12,49
193,762	12,9
193,974	-32,15
194,186	-5,53
194,398	1,02
194,61	-15,97
194,822	26,62
195,034	3,89
195,246	-2,66
195,457	36,45
195,669	16,38
195,881	-17,41
196,093	-5,32
196,305	-8,81
196,517	10,85
196,729	-1,64
196,941	-6,14
197,153	1,02
197,365	-4,92
197,576	16,79
197,788	13,52
198	-9,22
198,212	4,1
198,424	15,77
198,636	-26,83
198,847	7,58
199,059	18,43
199,271	4,1
199,483	-1,02
199,695	26,01
199,906	-23,96
200,118	2,46
200,33	15,77
200,542	33,18
200,753	-6,14
200,965	2,46
201,177	-1,64
201,389	-1,02
201,6	-2,87
201,812	4,51
202,024	17,41
202,235	4,3
202,447	5,12
202,659	7,78
202,871	-1,02
203,082	15,97
203,294	-3,69
203,506	-10,44
203,717	7,17
203,929	-49,56
204,141	-6,14
204,352	13,52
204,564	-30,51
204,775	-13,72
204,987	3,28
205,199	2,46
205,41	2,46
205,622	-6,14
205,833	28,26
206,045	5,12
206,257	-11,26
206,468	9,63
206,68	12,9
206,891	-27,44
207,103	-14,34
207,314	-11,06
207,526	21,09
207,737	-4,3
207,949	1,23
208,16	-7,37
208,372	-10,85
208,583	12,9
208,795	20,48
209,006	-10,04
209,218	2,05
209,429	18,64
209,641	-8,4
209,852	-5,73
210,064	-11,26
210,275	19,66
210,487	-8,4
210,698	-5,32
210,909	-9,01
211,121	-0,41
211,332	8,81
211,544	22,73
211,755	-2,66
211,966	10,65
212,178	-21,09
212,389	9,01
212,6	-1,84
212,812	-1,02
213,023	17
213,234	19,87
213,446	8,4
213,657	22,32
213,868	31,74
214,08	18,02
214,291	-11,06
214,502	3,89
214,714	-44,24
214,925	17,41
215,136	34,61
215,347	-7,37
215,559	-5,12
215,77	-2,87
215,981	8,81
216,192	-8,4
216,404	-2,66
216,615	-17,2
216,826	-5,94
217,037	-5,94
217,249	16,79
217,46	-12,7
217,671	2,46
217,882	-15,36
218,093	-11,47
218,304	9,83
218,516	-13,93
218,727	-38,3
218,938	1,84
219,149	9,22
219,36	-1,43
219,571	17,61
219,782	14,95
219,993	-9,83
220,205	-18,23
220,416	-1,43
220,627	-5,53
220,838	8,6
221,049	13,52
221,26	18,84
221,471	16,38
221,682	21,71
221,893	-6,96
222,104	-4,51
222,315	-36,25
222,526	-28,06
222,737	6,55
222,948	19,05
223,159	-2,05
223,37	7,17
223,581	1,84
223,792	-21,3
224,003	-6,35
224,214	11,47
224,425	12,49
224,636	16,18
224,847	-8,19
225,058	7,99
225,269	6,35
225,48	-1,23
225,691	20,68
225,902	-12,9
226,112	-22,53
226,323	-19,25
226,534	5,32
226,745	-18,43
226,956	5,12
227,167	-33,79
227,378	9,01
227,589	-1,64
227,799	44,44
228,01	17,41
228,221	3,28
228,432	25,39
228,643	-22,32
228,853	-1,02
229,064	-1,23
229,275	-0,2
229,486	12,08
229,697	-10,85
229,907	-37,68
230,118	-6,76
230,329	2,25
230,54	14,13
230,75	2,25
230,961	-1,02
231,172	-19,66
231,383	-7,37
231,593	4,3
231,804	-27,44
232,015	7,99
232,225	-20,07
232,436	-12,29
232,647	4,3
232,857	-14,95
233,068	3,07
233,279	-11,88
233,489	-9,22
233,7	28,06
233,91	0,2
234,121	0,61
234,332	22,32
234,542	2,87
234,753	-21,3
234,964	10,65
235,174	3,69
235,385	-0,41
235,595	21,09
235,806	11,06
236,016	0,41
236,227	6,76
236,437	-1,23
236,648	30,31
236,858	-6,35
237,069	5,12
237,279	0,41
237,49	13,11
237,7	-9,63
237,911	1,23
238,121	-4,51
238,332	-2,25
238,542	3,89
238,753	14,13
238,963	3,07
239,174	7,99
239,384	-34,41
239,595	20,07
239,805	20,89
240,015	-14,34
240,226	20,89
240,436	-17,2
240,647	-16,18
240,857	11,47
241,067	15,15
241,278	6,55
241,488	1,23
241,698	-14,13
241,909	19,46
242,119	1,02
242,329	-15,15
242,54	-11,26
242,75	-20,48
242,96	14,54
243,171	-8,4
243,381	3,89
243,591	-34,82
243,801	5,53
244,012	9,63
244,222	-24,17
244,432	7,78
244,642	-1,23
244,853	-21,71
245,063	0
245,273	-2,25
245,483	7,99
245,694	-34,41
245,904	9,22
246,114	16,79
246,324	-8,19
246,534	-15,97
246,744	4,3
246,955	23,76
247,165	-12,7
247,375	-16,18
247,585	16,18
247,795	-8,81
248,005	19,25
248,215	2,25
248,425	-20,07
248,636	30,72
248,846	8,4
249,056	29,08
249,266	-20,48
249,476	-24,37
249,686	-0,2
249,896	3,07
250,106	-6,35
250,316	-2,66
250,526	39,32
250,736	-12,29
250,946	20,27
251,156	3,89
251,366	-26,42
251,576	31,33
251,786	-18,43
251,996	-4,71
252,206	-15,56
252,416	-4,71
252,626	-5,73
252,836	21,09
253,046	6,35
253,256	-3,69
253,466	29,9
253,676	1,23
253,885	-38,09
254,095	8,19
254,305	10,04
254,515	-10,65
254,725	16,18
254,935	-4,3
255,145	24,17
255,355	18,23
255,564	-26,83
255,774	22,32
255,984	4,1
256,194	20,89
256,404	-17,82
256,614	12,29
256,823	13,11
257,033	-24,99
257,243	42,8
257,453	1,23
257,662	-10,44
257,872	24,78
258,082	34
258,292	-11,88
258,501	27,65
258,711	24,17
258,921	-8,81
259,131	12,29
259,34	-9,01
259,55	18,02
259,76	-3,69
259,969	20,27
260,179	4,3
260,389	-22,32
260,598	4,51
260,808	16,38
261,018	-3,69
261,227	-3,89
261,437	5,73
261,647	-4,1
261,856	-33,38
262,066	1,43
262,275	-8,4
262,485	34,82
262,694	2,25
262,904	14,13
263,114	-26,62
263,323	-23,35
263,533	8,19
263,742	-28,06
263,952	-3,28
264,161	5,32
264,371	-10,85
264,58	7,17
264,79	11,67
264,999	-5,73
265,209	6,55
265,418	14,95
265,628	-8,6
265,837	19,05
266,047	18,64
266,256	1,02
266,466	11,47
266,675	-36,66
266,884	-0,82
267,094	-10,24
267,303	-16,79
267,513	33,38
267,722	9,01
267,931	-7,99
268,141	4,71
268,35	0,2
268,559	-2,25
268,769	22,12
268,978	-33,18
269,187	3,28
269,397	-2,87
269,606	-4,92
269,815	15,15
270,025	-10,65
270,234	18,84
270,443	-25,19
270,653	2,05
270,862	33,59
271,071	-12,7
271,28	-10,04
271,49	6,76
271,699	-31,95
271,908	8,4
272,117	-2,66
272,327	14,54
272,536	8,19
272,745	-6,76
272,954	-11,47
273,163	31,74
273,372	37,48
273,582	5,32
273,791	-11,06
274	-22,32
274,209	17,41
274,418	14,54
274,627	-22,73
274,836	-16,38
275,046	12,29
275,255	11,47
275,464	23,96
275,673	0,82
275,882	3,07
276,091	3,89
276,3	21,5
276,509	4,92
276,718	-5,12
276,927	12,08
277,136	-22,94
277,345	-5,32
277,554	-12,29
277,763	5,32
277,972	14,34
278,181	11,47
278,39	2,87
278,599	28,06
278,808	8,4
279,017	-4,51
279,226	-18,23
279,435	44,65
279,644	-20,07
279,853	-24,58
280,062	-4,1
280,271	18,23
280,48	-13,31
280,688	-21,5
280,897	-4,92
281,106	1,43
281,315	20,68
281,524	-1,02
281,733	14,54
281,942	-9,63
282,151	20,89
282,359	10,65
282,568	-9,83
282,777	-3,89
282,986	11,88
283,195	3,48
283,403	10,44
283,612	-0,2
283,821	-10,44
284,03	-28,26
284,238	4,1
284,447	16,18
284,656	-27,44
284,865	-0,41
285,073	-23,35
285,282	13,93
285,491	-11,26
285,699	4,3
285,908	-20,27
286,117	5,94
286,325	2,66
286,534	-9,01
286,743	-5,73
286,951	1,23
287,16	1,64
287,369	22,73
287,577	-16,18
287,786	-14,34
287,995	-3,28
288,203	9,01
288,412	40,55
288,62	14,95
288,829	23,55
289,037	-18,43
289,246	19,46
289,455	-8,6
289,663	24,37
289,872	18,84
290,08	-9,42
290,289	27,24
290,497	-9,63
290,706	-12,49
290,914	-23,76
291,123	-10,24
291,331	8,19
291,54	2,46
291,748	-2,87
291,957	-4,71
292,165	-12,29
292,373	5,73
292,582	2,46
292,79	7,58
292,999	5,32
293,207	-4,1
293,415	-18,64
293,624	4,3
293,832	7,78
294,041	-7,78
294,249	9,63
294,457	13,11
294,666	27,03
294,874	-7,37
295,082	-8,19
295,291	8,6
295,499	-11,67
295,707	1,64
295,915	-19,87
296,124	24,58
296,332	13,11
296,54	34
296,749	13,31
296,957	10,85
297,165	22,12
297,373	-14,34
297,581	7,17
297,79	-21,3
297,998	-11,67
298,206	-13,11
298,414	1,64
298,622	9,42
298,831	26,62
299,039	-18,23
299,247	2,25
299,455	6,35
299,663	-17,2
299,871	1,43
300,08	15,77
300,288	-1,84
300,496	-3,69
300,704	4,51
300,912	1,23
301,12	-22,94
301,328	-15,56
301,536	7,17
301,744	-19,87
301,952	18,64
302,16	-5,32
302,368	-2,05
302,576	7,78
302,784	-3,07
302,992	1,84
303,2	18,84
303,408	-21,5
303,616	-22,53
303,824	-11,26
304,032	3,89
304,24	45,87
304,448	-1,02
304,656	-5,94
304,864	12,49
305,072	5,53
305,28	2,25
305,488	0,82
305,696	-16,38
305,904	-10,24
306,111	5,73
306,319	-31,74
306,527	-3,69
306,735	8,81
306,943	33,59
307,151	-3,48
307,359	20,68
307,566	5,53
307,774	-21,71
307,982	-4,71
308,19	7,78
308,398	3,69
308,605	-0,2
308,813	-20,68
309,021	-20,89
309,229	5,53
309,436	-1,64
309,644	27,44
309,852	41,98
310,06	17,82
310,267	-9,01
310,475	23,35
310,683	-13,31
310,89	-15,15
311,098	22,73
311,306	8,19
311,513	-19,87
311,721	-2,05
311,929	23,14
312,136	35,84
312,344	-18,64
312,552	6,76
312,759	9,01
312,967	-4,51
313,174	-12,08
313,382	6,76
313,589	2,05
313,797	-2,46
314,005	0,41
314,212	21,3
314,42	-23,35
314,627	20,48
314,835	30,92
315,042	-4,71
315,25	18,64
315,457	1,23
315,665	-15,36
315,872	22,12
316,08	13,72
316,287	-24,99
316,495	54,48
316,702	-13,31
316,909	16,38
317,117	-2,66
317,324	-26,83
317,532	18,84
317,739	0,2
317,946	9,01
318,154	-24,58
318,361	-5,32
318,569	14,95
318,776	2,66
318,983	-17,61
319,191	-16,59
319,398	16,38
319,605	-12,49
319,813	-9,83
320,02	-3,48
320,227	9,42
320,434	-0,2
320,642	10,44
320,849	16,38
321,056	0,82
321,264	-25,8
321,471	0,82
321,678	8,81
321,885	2,66
322,092	24,78
322,3	-1,64
322,507	-25,19
322,714	-8,6
322,921	10,04
323,128	2,66
323,336	-37,07
323,543	14,75
323,75	1,02
323,957	-1,23
324,164	-13,31
324,371	-2,25
324,578	-1,02
324,786	-1,64
324,993	-2,46
325,2	2,87
325,407	-46,28
325,614	-1,64
325,821	5,73
326,028	8,81
326,235	27,65
326,442	1,43
326,649	-1,43
326,856	-0,61
327,063	0,61
327,27	16,18
327,477	-14,34
327,684	-14,13
327,891	-6,76
328,098	21,91
328,305	17
328,512	2,46
328,719	20,07
328,926	17,2
329,133	1,84
329,34	20,68
329,546	-24,58
329,753	10,44
329,96	3,48
330,167	13,72
330,374	5,94
330,581	19,46
330,788	-34,2
330,995	2,66
331,201	14,75
331,408	12,7
331,615	17,41
331,822	-1,43
332,029	-1,84
332,235	9,63
332,442	-21,91
332,649	-11,26
332,856	1,64
333,062	1,02
333,269	-24,58
333,476	-25,39
333,683	23,76
333,889	-3,69
334,096	-0,82
334,303	-4,1
334,509	-12,9
334,716	10,65
334,923	-6,35
335,129	-17,61
335,336	29,29
335,543	-12,49
335,749	19,05
335,956	-2,66
336,163	-26,83
336,369	12,08
336,576	-16,79
336,782	0,82
336,989	1,84
337,196	15,15
337,402	-6,14
337,609	-15,15
337,815	-12,9
338,022	-33,59
338,228	-0,82
338,435	6,96
338,641	13,52
338,848	-19,25
339,054	7,99
339,261	-11,47
339,467	21,91
339,674	9,42
339,88	9,01
340,087	15,15
340,293	12,7
340,5	12,7
340,706	-19,87
340,912	-20,07
341,119	-17,61
341,325	0,61
341,532	4,1
341,738	-3,89
341,944	18,43
342,151	12,29
342,357	-12,49
342,563	14,95
342,77	-21,5
342,976	-12,7
343,182	-9,01
343,389	10,04
343,595	5,94
343,801	-4,3
344,007	5,12
344,214	-32,77
344,42	18,84
344,626	-0,2
344,832	1,64
345,039	19,05
345,245	-4,3
345,451	-15,97
345,657	-35,43
345,864	-13,11
346,07	8,81
346,276	-4,1
346,482	13,52
346,688	-12,49
346,894	-10,04
347,1	-6,55
347,307	7,78
347,513	21,91
347,719	-23,55
347,925	11,47
348,131	25,6
348,337	-9,42
348,543	-17,41
348,749	5,94
348,955	-14,13
349,161	-30,11
349,367	-2,05
349,573	-31,33
349,779	6,35
349,985	-3,89
350,191	-15,56
350,397	22,94
350,603	-3,48
350,809	19,87
351,015	-23,35
351,221	-22,32
351,427	10,24
351,633	9,42
351,839	-14,54
352,045	-0,61
352,251	-7,37
352,457	2,66
352,663	0,61
352,869	-11,67
353,075	-19,46
353,28	-1,23
353,486	-20,68
353,692	-4,3
353,898	8,4
354,104	-6,14
354,31	-8,4
354,515	8,19
354,721	6,76
354,927	-6,14
355,133	-6,76
355,339	-28,26
355,544	-22,94
355,75	10,24
355,956	11,88
356,162	1,43
356,367	-21,91
356,573	16,38
356,779	16,79
356,984	11,67
357,19	-3,48
357,396	-20,68
357,602	0,2
357,807	-2,87
358,013	-6,96
358,218	-24,37
358,424	6,35
358,63	-12,49
358,835	-31,54
359,041	-18,84
359,247	10,44
359,452	-31,33
359,658	-5,73
359,863	5,53
360,069	-16,79
360,274	-14,75
360,48	-50,79
360,685	-4,71
360,891	0,61
361,097	-11,26
361,302	-8,19
361,508	1,84
361,713	-25,6
361,918	20,68
362,124	7,58
362,329	18,23
362,535	-17,82
362,74	-17,2
362,946	-6,96
363,151	29,7
363,357	-14,54
363,562	-22,94
363,767	-30,72
363,973	-22,12
364,178	-17,61
364,383	-4,71
364,589	0,41
364,794	3,69
365	30,92
365,205	12,49
365,41	8,19
365,615	-19,05
365,821	-37,68
366,026	16,59
366,231	5,53
366,437	12,08
366,642	-32,15
366,847	-17,61
367,052	-15,77
367,258	-2,46
367,463	-45,26
367,668	2,87
367,873	7,58
368,078	7,78
368,284	-10,65
368,489	-15,15
368,694	-27,24
368,899	-15,36
369,104	-25,6
369,309	5,12
369,515	-12,29
369,72	-24,99
369,925	-34,41
370,13	-25,6
370,335	16,18
370,54	14,34
370,745	-20,07
370,95	6,35
371,155	-9,42
371,36	-15,77
371,565	-26,83
371,77	-46,28
371,975	-29,29
372,18	-21,5
372,385	0,2
372,59	4,71
372,795	-0,82
373	16,79
373,205	6,14
373,41	-42,19
373,615	-17
373,82	-11,26
374,025	11,88
374,23	-35,02
374,435	-31,54
374,64	14,95
374,845	10,04
375,05	-13,52
375,254	-10,04
375,459	-32,15
375,664	-18,02
375,869	-20,89
376,074	-31,13
376,279	-36,45
376,483	-6,96
376,688	4,3
376,893	-9,63
377,098	2,66
377,303	-36,45
377,507	-19,25
377,712	1,23
377,917	-12,9
378,122	-47,51
378,326	1,64
378,531	-24,99
378,736	-14,13
378,94	-7,17
379,145	-10,85
379,35	-6,76
379,554	-10,85
379,759	-0,2
379,964	-22,12
380,168	-7,78
380,373	-42,39
380,578	0,61
380,782	3,89
380,987	-0,82
381,191	-29,29
381,396	-7,17
381,601	-31,95
381,805	-13,72
382,01	2,87
382,214	1,02
382,419	-29,7
382,623	34,41
382,828	-0,41
383,032	-37,27
383,237	-21,5
383,441	-53,45
383,646	-21,3
383,85	-20,07
384,055	-23,14
384,259	-4,92
384,464	-41,16
384,668	6,76
384,872	-10,24
385,077	-44,03
385,281	-4,3
385,486	-38,91
385,69	-28,26
385,894	-10,04
386,099	-29,49
386,303	13,72
386,507	-29,9
386,712	-29,7
386,916	-9,22
387,12	-17
387,325	-14,95
387,529	-2,66
387,733	8,19
387,937	6,76
388,142	-22,12
388,346	11,88
388,55	-5,73
388,754	1,02
388,959	-26,01
389,163	-27,24
389,367	-22,32
389,571	-18,64
389,775	-11,26
389,98	-27,24
390,184	-31,13
390,388	-5,32
390,592	-11,88
390,796	-18,84
391	-22,94
391,204	-51,61
391,409	-20,48
391,613	-33,79
391,817	-17,82
392,021	-13,11
392,225	-10,85
392,429	-8,81
392,633	-9,01
392,837	7,17
393,041	25,39
393,245	5,73
393,449	-17,41
393,653	-19,46
393,857	-6,35
394,061	0
394,265	-27,44
394,469	-1,02
394,673	15,15
394,877	-43,62
395,081	-16,38
395,285	-30,92
395,489	-36,66
395,693	-23,35
395,896	-31,74
396,1	3,07
396,304	-24,37
396,508	-29,29
396,712	-42,19
396,916	-25,6
397,12	-20,48
397,323	-34
397,527	-4,3
397,731	-9,42
397,935	-18,64
398,139	-18,64
398,342	-40,96
398,546	-44,03
398,75	-56,73
398,954	-42,6
399,157	-13,72
399,361	-41,37
399,565	-20,89
399,769	-45,06
399,972	-16,38
400,176	-18,64
400,38	-66,56
400,583	-20,89
400,787	-20,89
400,991	-36,25
401,194	-39,12
401,398	-61,85
401,601	-31,74
401,805	-7,78
402,009	-41,78
402,212	-49,36
402,416	-22,73
402,619	-79,26
402,823	-11,67
403,026	-58,57
403,23	-29,29
403,433	-6,55
403,637	-64,1
403,841	-33,18
404,044	-22,94
404,247	-52,63
404,451	-36,86
404,654	-34,41
404,858	-34,82
405,061	-78,44
405,265	-25,8
405,468	-27,44
405,672	-66,15
405,875	-43,21
406,078	-77
406,282	-50,18
406,485	-57,34
406,689	-71,47
406,892	-32,36
407,095	-29,29
407,299	-29,29
407,502	-44,65
407,705	-53,04
407,909	-24,58
408,112	-51,81
408,315	-35,84
408,518	-71,06
408,722	-51,4
408,925	-69,43
409,128	15,56
409,331	-10,65
409,535	-44,44
409,738	-45,06
409,941	-49,36
410,144	-21,71
410,347	-13,31
410,551	-16,79
410,754	-45,87
410,957	-50,99
411,16	-72,7
411,363	-38,71
411,566	-62,67
411,769	-54,07
411,973	-50,99
412,176	-84,17
412,379	-49,56
412,582	-53,86
412,785	-30,92
412,988	-72,5
413,191	-35,84
413,394	-44,03
413,597	-72,29
413,8	-48,13
414,003	-26,01
414,206	-66,35
414,409	-37,48
414,612	-50,58
414,815	-37,68
415,018	-61,64
415,221	-33,59
415,424	-51,2
415,627	-32,36
415,83	-48,95
416,033	-28,47
416,235	-57,75
416,438	-35,84
416,641	-43,42
416,844	-22,53
417,047	-49,36
417,25	-54,48
417,453	-47,72
417,655	-32,77
417,858	-73,52
418,061	-34
418,264	-26,21
418,467	-82,33
418,669	-52,63
418,872	-41,78
419,075	-55,5
419,278	-45,67
419,48	-47,31
419,683	-60,01
419,886	-79,05
420,089	-61,85
420,291	-25,6
420,494	-92,98
420,697	-78,85
420,899	-53,66
421,102	-74,34
421,305	-27,03
421,507	-73,32
421,71	-46,49
421,912	-53,66
422,115	-42,8
422,318	-44,85
422,52	-64,51
422,723	-36,86
422,925	-6,14
423,128	-26,42
423,33	-19,46
423,533	-62,26
423,735	-36,25
423,938	-53,45
424,14	-46,28
424,343	-39,53
424,545	-51,2
424,748	-49,97
424,95	-57,14
425,153	-55,91
425,355	-39,12
425,558	-45,46
425,76	-33,79
425,962	-41,57
426,165	-44,03
426,367	-41,37
426,57	-31,54
426,772	-46,49
426,974	-62,87
427,177	-54,07
427,379	-48,54
427,581	-9,42
427,784	-43,83
427,986	-59,39
428,188	-14,13
428,39	-78,23
428,593	-45,06
428,795	-66,76
428,997	-30,72
429,2	-48,74
429,402	-53,04
429,604	-47,92
429,806	-40,14
430,008	-49,15
430,211	-71,88
430,413	-19,87
430,615	-64,31
430,817	-38,91
431,019	-40,55
431,221	-49,36
431,423	-56,52
431,626	-69,43
431,828	-69,63
432,03	-74,34
432,232	-26,42
432,434	-45,26
432,636	-77,21
432,838	-36,66
433,04	-16,79
433,242	-57,75
433,444	-38,91
433,646	-37,68
433,848	-52,43
434,05	-73,11
434,252	-46,9
434,454	-50,58
434,656	-56,32
434,858	-91,34
435,06	-67,79
435,262	-77,62
435,464	-58,37
435,666	-46,69
435,868	-35,63
436,07	-45,46
436,271	-84,99
436,473	-63,28
436,675	-45,06
436,877	-56,93
437,079	-46,28
437,281	-47,31
437,482	-23,35
437,684	-65,94
437,886	-47,72
438,088	-76,59
438,29	-60,82
438,491	-96,05
438,693	-49,97
438,895	-116,94
439,097	-81,92
439,298	-82,94
439,5	-50,79
439,702	-53,25
439,903	-52,63
440,105	-87,86
440,307	-86,01
440,508	-69,63
440,71	-54,68
440,912	-38,3
441,113	-32,97
441,315	-85,4
441,517	-84,38
441,718	-91,75
441,92	-53,45
442,121	-76,18
442,323	-82,94
442,524	-49,77
442,726	-51,81
442,928	-81,1
443,129	-70,25
443,331	-57,55
443,532	-80,69
443,734	-70,04
443,935	-46,69
444,136	-56,52
444,338	-62,87
444,539	-63,28
444,741	-63,49
444,942	-57,34
445,144	-49,15
445,345	-37,89
445,546	-43,83
445,748	-70,45
445,949	-39,94
446,151	-62,05
446,352	-78,03
446,553	-77
446,755	-79,05
446,956	-77,41
447,157	-75,16
447,359	-47,51
447,56	-49,97
447,761	-43,21
447,962	-104,24
448,164	-66,97
448,365	-90,73
448,566	-49,36
448,767	-72,7
448,969	-40,96
449,17	-54,07
449,371	-60,62
449,572	-56,11
449,773	-73,93
449,974	-90,52
450,176	-57,14
450,377	-62,26
450,578	-42,39
450,779	-103,83
450,98	-81,3
451,181	-70,25
451,382	-50,79
451,583	-74,55
451,784	-76,18
451,986	-57,55
452,187	-61,23
452,388	-85,81
452,589	-55,91
452,79	-53,25
452,991	-76,59
453,192	-66,56
453,393	-72,5
453,594	-57,96
453,795	-88,27
453,995	-83,15
454,196	-62,05
454,397	-52,63
454,598	-51,81
454,799	-80,69
455	-69,22
455,201	-65,33
455,402	-37,89
455,603	-48,54
455,804	-83,35
456,004	-90,52
456,205	-98,1
456,406	-65,94
456,607	-65,53
456,808	-64,92
457,008	-83,35
457,209	-66,35
457,41	-78,85
457,611	-78,03
457,811	-54,89
458,012	-50,79
458,213	-101,17
458,414	-47,31
458,614	-89,5
458,815	-95,44
459,016	-74,34
459,216	-94,41
459,417	-82,12
459,618	-64,92
459,818	-82,53
460,019	-70,65
460,22	-88,47
460,42	-83,97
460,621	-66,15
460,821	-101,78
461,022	-81,71
461,223	-102,19
461,423	-81,71
461,624	-81,3
461,824	-78,23
462,025	-69,84
462,225	-72,91
462,426	-89,09
462,626	-85,2
462,827	-111,82
463,027	-80,28
463,228	-67,38
463,428	-82,33
463,628	-72,91
463,829	-91,54
464,029	-77,21
464,23	-55,09
464,43	-88,47
464,63	-90,73
464,831	-71,47
465,031	-83,35
465,231	-103,63
465,432	-76,39
465,632	-68,61
465,832	-74,34
466,033	-79,46
466,233	-90,11
466,433	-70,65
466,634	-89,29
466,834	-99,53
467,034	-83,97
467,234	-67,99
467,435	-87,24
467,635	-81,71
467,835	-92,77
468,035	-82,33
468,235	-93,18
468,436	-93,39
468,636	-92,98
468,836	-82,94
469,036	-128
469,236	-113,25
469,436	-80,69
469,636	-77,41
469,836	-74,14
470,037	-77
470,237	-87,65
470,437	-87,45
470,637	-88,27
470,837	-69,84
471,037	-109,57
471,237	-99,12
471,437	-89,91
471,637	-125,75
471,837	-90,32
472,037	-117,14
472,237	-108,13
472,437	-108,95
472,637	-83,35
472,837	-71,06
473,036	-87,45
473,236	-98,92
473,436	-72,5
473,636	-100,76
473,836	-114,28
474,036	-89,5
474,236	-117,76
474,436	-82,12
474,635	-92,36
474,835	-99,53
475,035	-86,83
475,235	-103,63
475,435	-95,64
475,634	-116,73
475,834	-151,55
476,034	-129,43
476,234	-122,67
476,433	-126,36
476,633	-130,87
476,833	-148,68
477,033	-124,93
477,232	-137,01
477,432	-72,09
477,632	-141,72
477,831	-120,83
478,031	-116,73
478,231	-140,7
478,43	-131,27
478,63	-101,37
478,829	-138,65
479,029	-117,14
479,229	-99,12
479,428	-150,12
479,628	-136,6
479,827	-112,02
480,027	-171,21
480,226	-118,17
480,426	-127,79
480,625	-134,14
480,825	-95,44
481,024	-138,44
481,224	-128,61
481,423	-158,72
481,623	-116,32
481,822	-150,94
482,021	-134,35
482,221	-148,89
482,42	-121,03
482,62	-125,54
482,819	-123,7
483,018	-159,13
483,218	-155,03
483,417	-136,6
483,616	-159,13
483,816	-137,62
484,015	-156,67
484,214	-127,38
484,414	-105,06
484,613	-138,03
484,812	-159,74
485,011	-138,24
485,211	-108,54
485,41	-95,03
485,609	-133,73
485,808	-117,14
486,008	-115,1
486,207	-129,02
486,406	-137,62
486,605	-140,29
486,804	-131,89
487,003	-152,37
487,203	-149,09
487,402	-177,15
487,601	-151,75
487,8	-121,85
487,999	-115,1
488,198	-134,55
488,397	-144,79
488,596	-147,45
488,795	-167,73
488,994	-183,09
489,193	-172,23
489,392	-180,63
489,591	-171,62
489,79	-161,38
489,989	-158,51
490,188	-159,54
490,387	-151,34
490,586	-130,05
490,785	-146,02
490,984	-152,37
491,183	-176,94
491,382	-163,43
491,581	-187,18
491,779	-136,8
491,978	-133,73
492,177	-145
492,376	-172,23
492,575	-146,84
492,774	-174,9
492,972	-174,9
493,171	-145,41
493,37	-150,32
493,569	-158,72
493,768	-156,67
493,966	-147,66
494,165	-160,77
494,364	-144,38
494,563	-166,09
494,761	-149,5
494,96	-164,66
495,159	-173,05
495,357	-118,58
495,556	-156,87
495,755	-162,2
495,953	-147,25
496,152	-180,02
496,35	-145,82
496,549	-162,2
496,748	-146,02
496,946	-165,68
497,145	-166,91
497,343	-168,55
497,542	-188,62
497,74	-133,94
497,939	-152,57
498,137	-146,84
498,336	-168,34
498,534	-155,03
498,733	-168,75
498,931	-164,66
499,13	-155,24
499,328	-164,86
499,527	-152,78
499,725	-157,08
499,924	-148,48
500,122	-168,75
500,32	-149,91
500,519	-113,66
500,717	-159,54
500,915	-168,14
501,114	-151,14
501,312	-152,37
501,51	-140,08
501,709	-155,65
501,907	-131,27
502,105	-173,87
502,304	-147,25
502,502	-154,83
502,7	-200,09
502,898	-189,03
503,097	-151,14
503,295	-135,37
503,493	-137,01
503,691	-133,12
503,889	-196,81
504,088	-145,82
504,286	-139,88
504,484	-133,12
504,682	-157,08
504,88	-150,53
505,078	-165,48
505,276	-160,97
505,474	-155,44
505,672	-161,38
505,871	-155,44
506,069	-136,39
506,267	-169,57
506,465	-145,41
506,663	-162,4
506,861	-196,2
507,059	-161,18
507,257	-138,85
507,455	-140,9
507,653	-136,39
507,851	-142,33
508,049	-134,76
508,246	-167,93
508,444	-171,21
508,642	-138,65
508,84	-176,13
509,038	-145,61
509,236	-178,38
509,434	-158,72
509,632	-163,84
509,829	-188,62
510,027	-164,66
510,225	-143,36
510,423	-158,51
510,621	-150,12
510,818	-122,26
511,016	-163,63
511,214	-157,9
511,412	-151,55
511,609	-169,57
511,807	-172,85
512,005	-131,07
512,203	-132,3
512,4	-157,08
512,598	-151,34
512,796	-137,62
512,993	-169,98
513,191	-146,22
513,389	-165,48
513,586	-178,38
513,784	-149,71
513,981	-129,23
514,179	-176,94
514,377	-168,34
514,574	-177,15
514,772	-153,8
514,969	-169,37
515,167	-171,41
515,364	-165,89
515,562	-130,66
515,759	-142,33
515,957	-161,58
516,154	-155,65
516,352	-140,7
516,549	-154,21
516,746	-148,89
516,944	-183,5
517,141	-171,01
517,339	-152,37
517,536	-156,06
517,733	-172,85
517,931	-180,43
518,128	-188,62
518,325	-155,85
518,523	-181,65
518,72	-155,24
518,917	-160,56
519,115	-166,91
519,312	-165,89
519,509	-140,29
519,707	-169,57
519,904	-194,97
520,101	-184,52
520,298	-153,8
520,495	-151,96
520,693	-184,93
520,89	-175,51
521,087	-183,5
521,284	-145,2
521,481	-151,75
521,678	-182,27
521,876	-164,66
522,073	-185,75
522,27	-175,72
522,467	-142,13
522,664	-149,71
522,861	-170,19
523,058	-150,53
523,255	-123,9
523,452	-140,7
523,649	-158,31
523,846	-165,89
524,043	-133,12
524,24	-115,1
524,437	-138,85
524,634	-156,26
524,831	-184,52
525,028	-120,63
525,225	-155,85
525,422	-149,3
525,619	-185,14
525,816	-139,88
526,013	-147,25
526,209	-155,03
526,406	-130,46
526,603	-209,1
526,8	-156,87
526,997	-125,75
527,194	-154,21
527,39	-112,64
527,587	-144,59
527,784	-162,2
527,981	-138,44
528,177	-126,56
528,374	-127,79
528,571	-108,34
528,768	-122,88
528,964	-85,4
529,161	-92,98
529,358	56,73
529,554	507,28
529,751	2843,81
529,948	10270,36
530,144	21235,59
530,341	36176,96
530,537	50321,25
530,734	61163,2
530,931	63525,94
531,127	63183,52
531,324	54734,22
531,52	35869,15
531,717	22257,94
531,913	14436,75
532,11	9154,22
532,306	5747,01
532,503	3678,97
532,699	2564,67
532,896	1743,44
533,092	1320,94
533,289	1068,83
533,485	760,41
533,682	466,32
533,878	284,46
534,074	172,85
534,271	68,4
534,467	8,6
534,664	-60,62
534,86	-99,74
535,056	-106,49
535,253	-105,06
535,449	-147,25
535,645	-141,72
535,841	-151,75
536,038	-147,25
536,234	-145,2
536,43	-132,09
536,626	-140,49
536,823	-146,63
537,019	-163,43
537,215	-138,44
537,411	-167,11
537,607	-145,82
537,804	-140,08
538	-131,89
538,196	-176,94
538,392	-160,36
538,588	-146,84
538,784	-145,2
538,98	-168,75
539,176	-161,79
539,373	-173,46
539,569	-154,42
539,765	-166,7
539,961	-149,5
540,157	-151,96
540,353	-145,2
540,549	-144,38
540,745	-167,32
540,941	-150,94
541,137	-167,11
541,333	-139,06
541,528	-136,8
541,724	-156,67
541,92	-150,73
542,116	-163,43
542,312	-155,85
542,508	-173,46
542,704	-164,45
542,9	-149,5
543,096	-164,45
543,291	-161,58
543,487	-150,53
543,683	-160,77
543,879	-167,52
544,075	-184,11
544,27	-152,16
544,466	-180,63
544,662	-129,02
544,858	-167,73
545,053	-175,72
545,249	-144,18
545,445	-139,67
545,64	-161,38
545,836	-165,07
546,032	-172,85
546,227	-152,78
546,423	-180,02
546,619	-164,04
546,814	-155,65
547,01	-168,34
547,205	-162,2
547,401	-130,66
547,597	-178,17
547,792	-182,27
547,988	-147,45
548,183	-172,44
548,379	-143,15
548,574	-169,16
548,77	-131,07
548,965	-155,24
549,161	-156,87
549,356	-165,89
549,552	-161,99
549,747	-136,39
549,942	-146,84
550,138	-168,14
550,333	-182,68
550,529	-182,06
550,724	-181,45
550,919	-158,1
551,115	-156,06
551,31	-146,63
551,505	-143,36
551,701	-160,15
551,896	-149,91
552,091	-164,45
552,287	-185,75
552,482	-156,06
552,677	-148,27
552,872	-175,72
553,067	-123,29
553,263	-144,79
553,458	-163,63
553,653	-164,66
553,848	-164,04
554,043	-164,04
554,239	-148,68
554,434	-148,48
554,629	-141,31
554,824	-154,21
555,019	-194,56
555,214	-157,08
555,409	-149,71
555,604	-149,5
555,799	-159,33
555,994	-155,65
556,189	-142,54
556,384	-156,06
556,579	-148,89
556,774	-168,14
556,969	-102,6
557,164	-150,94
557,359	-182,68
557,554	-130,05
557,749	-155,65
557,944	-137,62
558,139	-175,51
558,334	-156,87
558,529	-122,88
558,724	-168,14
558,918	-161,79
559,113	-154,01
559,308	-140,08
559,503	-140,08
559,698	-163,22
559,893	-156,87
560,087	-148,48
560,282	-145,61
560,477	-156,06
560,672	-168,96
560,866	-156,26
561,061	-140,29
561,256	-138,65
561,45	-141,92
561,645	-169,57
561,84	-156,06
562,034	-160,97
562,229	-145,82
562,424	-167,32
562,618	-139,47
562,813	-137,21
563,008	-144,79
563,202	-105,68
563,397	-150,73
563,591	-125,95
563,786	-140,9
563,98	-131,48
564,175	-92,77
564,369	-120,01
564,564	-134,35
564,758	-111,2
564,953	-128
565,147	-157,28
565,342	-126,15
565,536	-138,24
565,731	-106,29
565,925	-120,01
566,119	-176,33
566,314	-123,29
566,508	-132,5
566,703	-101,99
566,897	-164,45
567,091	-148,07
567,286	-129,64
567,48	-127,79
567,674	-136,6
567,868	-148,07
568,063	-146,02
568,257	-126,15
568,451	-140,49
568,646	-122,47
568,84	-147,66
569,034	-127,79
569,228	-136,6
569,422	-128,41
569,616	-116,53
569,811	-153,19
570,005	-114,07
570,199	-131,68
570,393	-132,5
570,587	-139,67
570,781	-119,6
570,975	-102,4
571,169	-143,77
571,364	-126,15
571,558	-103,22
571,752	-130,05
571,946	-142,33
572,14	-122,67
572,334	-116,53
572,528	-166,91
572,722	-131,27
572,916	-134,14
573,109	-113,46
573,303	-129,64
573,497	-138,85
573,691	-107,93
573,885	-121,85
574,079	-127,38
574,273	-153,8
574,467	-118,78
574,661	-125,13
574,854	-112,64
575,048	-128
575,242	-118,37
575,436	-107,72
575,63	-109,36
575,823	-140,9
576,017	-116,32
576,211	-164,04
576,405	-110,59
576,598	-120,63
576,792	-127,79
576,986	-129,64
577,18	-127,38
577,373	-124,11
577,567	-100,35
577,761	-120,63
577,954	-105,47
578,148	-98,3
578,341	-125,13
578,535	-113,25
578,729	-127,18
578,922	-143,15
579,116	-140,08
579,309	-133,12
579,503	-125,34
579,696	-152,98
579,89	-77,62
580,083	-151,75
580,277	-145,2
580,47	-121,85
580,664	-95,03
580,857	-140,9
581,051	-136,39
581,244	-124,52
581,437	-86,42
581,631	-119,81
581,824	-124,93
582,018	-122,67
582,211	-165,89
582,404	-156,87
582,598	-136,6
582,791	-113,05
582,984	-120,83
583,178	-123,08
583,371	-140,9
583,564	-132,71
583,757	-129,02
583,951	-109,36
584,144	-157,08
584,337	-124,11
584,53	-121,24
584,723	-127,59
584,917	-106,9
585,11	-131,07
585,303	-112,64
585,496	-119,81
585,689	-111,61
585,882	-109,36
586,075	-141,51
586,268	-122,26
586,462	-149,5
586,655	-100,35
586,848	-131,27
587,041	-133,32
587,234	-111,82
587,427	-118,78
587,62	-146,84
587,813	-114,28
588,006	-105,27
588,199	-114,28
588,392	-119,81
588,585	-115,92
588,777	-116,32
588,97	-118,58
589,163	-114,89
589,356	-100,56
589,549	-115,1
589,742	-95,64
589,935	-139,47
590,128	-131,07
590,32	-102,81
590,513	-140,49
590,706	-98,1
590,899	-114,28
591,092	-115,1
591,284	-112,23
591,477	-126,36
591,67	-114,69
591,863	-93,18
592,055	-129,23
592,248	-90,93
592,441	-126,56
592,633	-113,46
592,826	-118,99
593,019	-110,8
593,211	-95,84
593,404	-143,36
593,596	-112,02
593,789	-131,48
593,982	-106,7
594,174	-119,19
594,367	-111,61
594,559	-97,69
594,752	-116,53
594,944	-108,34
595,137	-92,77
595,329	-122,06
595,522	-137,83
595,714	-138,44
595,907	-101,58
596,099	-134,96
596,292	-92,77
596,484	-108,34
596,676	-123,08
596,869	-52,63
597,061	-100,76
597,253	-103,01
597,446	-96,87
597,638	-101,17
597,83	-85,81
598,023	-105,47
598,215	-109,57
598,407	-99,74
598,6	-113,87
598,792	-115,3
598,984	-99,12
599,176	-109,16
599,369	-123,49
599,561	-92,98
599,753	-110,39
599,945	-99,94
600,137	-89,29
600,329	-92,98
600,522	-98,3
600,714	-132,5
600,906	-124,52
601,098	-116,53
601,29	-89,91
601,482	-104,04
601,674	-121,65
601,866	-104,86
602,058	-102,19
602,25	-118,99
602,442	-90,11
602,634	-72,7
602,826	-76,59
603,018	-126,15
603,21	-108,95
603,402	-127,38
603,594	-115,3
603,786	-95,44
603,978	-91,75
604,17	-101,78
604,362	-99,12
604,554	-98,71
604,745	-117,76
604,937	-103,01
605,129	-100,56
605,321	-109,57
605,513	-104,65
605,704	-144,59
605,896	-92,16
606,088	-115,71
606,28	-125,75
606,471	-121,44
606,663	-129,64
606,855	-141,72
607,047	-94,41
607,238	-117,55
607,43	-97,28
607,622	-101,58
607,813	-107,31
608,005	-121,03
608,197	-90,73
608,388	-129,23
608,58	-88,47
608,771	-85,4
608,963	-96,46
609,154	-82,53
609,346	-115,3
609,537	-113,25
609,729	-120,63
609,921	-109,57
610,112	-110,39
610,303	-104,04
610,495	-99,33
610,686	-92,36
610,878	-98,3
611,069	-111
611,261	-106,7
611,452	-114,69
611,643	-135,78
611,835	-108,95
612,026	-98,1
612,217	-86,01
612,409	-92,77
612,6	-71,68
612,791	-80,08
612,983	-81,51
613,174	-54,89
613,365	-102,81
613,557	-86,01
613,748	-85,61
613,939	-104,24
614,13	-74,14
614,321	-95,23
614,513	-84,58
614,704	-74,96
614,895	-111,61
615,086	-81,92
615,277	-93,18
615,468	-130,66
615,659	-96,46
615,851	-95,44
616,042	-115,92
616,233	-85,4
616,424	-98,1
616,615	-94,82
616,806	-73,11
616,997	-86,83
617,188	-96,66
617,379	-111,61
617,57	-77,21
617,761	-83,56
617,952	-84,79
618,143	-102,81
618,334	-132,71
618,524	-77,62
618,715	-99,94
618,906	-93,59
619,097	-107,31
619,288	-111,2
619,479	-95,44
619,67	-81,1
619,86	-101,99
620,051	-91,34
620,242	-82,53
620,433	-107,52
620,624	-99,94
620,814	-98,71
621,005	-102,19
621,196	-86,83
621,386	-91,13
621,577	-107,31
621,768	-64,72
621,958	-98,3
622,149	-77,62
622,34	-131,07
622,53	-86,83
622,721	-103,01
622,912	-104,04
623,102	-91,95
623,293	-84,99
623,483	-102,81
623,674	-103,42
623,864	-108,34
624,055	-108,34
624,245	-104,04
624,436	-113,66
624,626	-71,06
624,817	-78,23
625,007	-117,14
625,198	-83,97
625,388	-97,89
625,579	-96,05
625,769	-83,35
625,959	-81,71
626,15	-109,77
626,34	-84,38
626,531	-70,45
626,721	-112,84
626,911	-89,91
627,101	-104,45
627,292	-76,8
627,482	-110,59
627,672	-109,16
627,863	-99,33
628,053	-80,28
628,243	-69,63
628,433	-103,01
628,623	-99,74
628,814	-71,06
629,004	-75,77
629,194	-84,79
629,384	-98,92
629,574	-99,12
629,764	-94,62
629,955	-77,82
630,145	-93,39
630,335	-70,45
630,525	-124,93
630,715	-80,28
630,905	-87,86
631,095	-110,59
631,285	-104,24
631,475	-90,73
631,665	-72,29
631,855	-103,42
632,045	-95,44
632,235	-107,11
632,425	-101,58
632,615	-108,95
632,805	-101,58
632,994	-80,28
633,184	-89,5
633,374	-73,32
633,564	-91,34
633,754	-89,09
633,944	-83,15
634,133	-118,58
634,323	-74,34
634,513	-92,16
634,703	-78,85
634,893	-100,56
635,082	-93,8
635,272	-86,22
635,462	-102,6
635,651	-61,03
635,841	-102,81
636,031	-104,65
636,221	-95,84
636,41	-87,86
636,6	-110,39
636,789	-90,52
636,979	-95,64
637,169	-79,26
637,358	-98,3
637,548	-91,34
637,737	-100,56
637,927	-84,17
638,116	-91,13
638,306	-111,41
638,495	-108,13
638,685	-122,26
638,874	-113,05
639,064	-99,74
639,253	-115,92
639,443	-81,1
639,632	-88,47
639,822	-79,05
640,011	-85,81
640,2	-77
640,39	-90,32
640,579	-110,59
640,768	-96,66
640,958	-67,79
641,147	-76,39
641,336	-82,74
641,526	-94
641,715	-60,82
641,904	-96,46
642,093	-83,56
642,283	-126,97
642,472	-68,81
642,661	-64,51
642,85	-104,65
643,039	-85,4
643,228	-71,47
643,418	-41,57
643,607	-81,3
643,796	-83,56
643,985	-82,74
644,174	-56,11
644,363	-76,18
644,552	-80,28
644,741	-81,3
644,93	-86,63
645,119	-81,71
645,308	-69,63
645,497	-66,56
645,686	-79,87
645,875	-106,08
646,064	-77,82
646,253	-47,92
646,442	-88,47
646,631	-72,7
646,82	-97,48
647,009	-88,68
647,198	-88,27
647,387	-48,13
647,575	-91,75
647,764	-30,31
647,953	-57,34
648,142	-84,58
648,331	-69,84
648,519	-92,16
648,708	-102,4
648,897	-91,95
649,086	-96,66
649,274	-90,11
649,463	-99,74
649,652	-68,4
649,84	-46,69
650,029	-65,33
650,218	-85,2
650,406	-87,04
650,595	-78,44
650,784	-67,17
650,972	-114,48
651,161	-72,29
651,349	-75,37
651,538	-89,09
651,726	-88,88
651,915	-63,08
652,104	-105,68
652,292	-73,93
652,481	-55,3
652,669	-52,22
652,857	-92,98
653,046	-70,65
653,234	-110,8
653,423	-83,35
653,611	-66,56
653,8	-79,05
653,988	-56,52
654,176	-98,3
654,365	-101,58
654,553	-62,26
654,741	-99,53
654,93	-95,64
655,118	-63,08
655,306	-75,37
655,494	-77,41
655,683	-86,22
655,871	-93,18
656,059	-79,26
656,247	-87,04
656,436	-59,39
656,624	-83,97
656,812	-77,62
657	-73,73
657,188	-79,67
657,376	-59,39
657,564	-50,18
657,753	-47,31
657,941	-74,34
658,129	-79,05
658,317	-89,91
658,505	-64,31
658,693	-77,62
658,881	-76,18
659,069	-74,96
659,257	-90,32
659,445	-70,65
659,633	-32,97
659,821	-76,59
660,009	-96,66
660,197	-75,37
660,384	-56,73
660,572	-81,51
660,76	-47,72
660,948	-69,22
661,136	-72,91
661,324	-45,06
661,512	-58,37
661,699	-92,77
661,887	-78,44
662,075	-40,55
662,263	-97,69
662,451	-109,57
662,638	-86,01
662,826	-94,41
663,014	-60,42
663,201	-60,82
663,389	-75,37
663,577	-74,14
663,764	-61,85
663,952	-68,61
664,14	-68,4
664,327	-92,57
664,515	-60,21
664,702	-73,11
664,89	-88,47
665,078	-85,2
665,265	-57,55
665,453	-50,99
665,64	-89,91
665,828	-69,22
666,015	-114,48
666,203	-104,04
666,39	-77,21
666,578	-80,28
666,765	-65,13
666,952	-52,84
667,14	-46,69
667,327	-77
667,515	-70,86
667,702	-83,97
667,889	-83,56
668,077	-39,32
668,264	-54,27
668,451	-56,73
668,638	-96,66
668,826	-99,74
669,013	-95,23
669,2	-62,05
669,388	-43,83
669,575	-48,54
669,762	-33,18
669,949	-50,79
670,136	29,29
670,323	-81,3
670,511	-75,37
670,698	-46,49
670,885	-56,73
671,072	-74,34
671,259	-56,32
671,446	-44,24
671,633	-64,72
671,82	-88,88
672,007	-87,86
672,194	-69,84
672,381	-64,31
672,568	-39,12
672,755	-55,09
672,942	-78,64
673,129	-73,52
673,316	-63,69
673,503	-49,56
673,69	-56,32
673,877	-40,55
674,064	-52,63
674,251	-52,02
674,437	-58,57
674,624	-62,26
674,811	-58,78
674,998	-56,73
675,185	-61,85
675,372	-42,8
675,558	-66,56
675,745	-79,05
675,932	-74,14
676,119	-57,96
676,305	-50,99
676,492	-68,2
676,679	-39,12
676,865	-46,08
677,052	-66,97
677,239	-67,79
677,425	-50,58
677,612	-79,87
677,798	-53,25
677,985	-69,22
678,172	-58,37
678,358	-51,4
678,545	-82,53
678,731	-49,77
678,918	-66,35
679,104	-68,61
679,291	-77,41
679,477	-85,2
679,664	-58,37
679,85	-43,21
680,036	-57,34
680,223	-113,25
680,409	-61,23
680,596	-66,56
680,782	-87,65
680,968	-56,73
681,155	-54,07
681,341	-71,68
681,527	-64,1
681,714	-52,02
681,9	-67,99
682,086	-55,09
682,272	-53,86
682,459	-51,4
682,645	-62,67
682,831	-77
683,017	-49,15
683,204	-61,44
683,39	-72,91
683,576	-49,77
683,762	-50,79
683,948	-46,49
684,134	-104,65
684,32	-50,58
684,506	-48,95
684,693	-75,98
684,879	-57,34
685,065	-58,37
685,251	-75,16
685,437	-51,2
685,623	-25,39
685,809	-25,8
685,995	-37,89
686,181	-44,24
686,366	-67,58
686,552	-70,86
686,738	-48,74
686,924	-37,68
687,11	-63,9
687,296	-37,89
687,482	-3,48
687,668	-22,32
687,853	-40,75
688,039	-63,69
688,225	-39,53
688,411	-38,5
688,597	-20,48
688,782	-45,26
688,968	-23,35
689,154	-58,78
689,34	-46,08
689,525	-36,86
689,711	-37,89
689,897	-61,64
690,082	-64,51
690,268	-12,08
690,454	-39,94
690,639	-55,91
690,825	-59,19
691,01	-82,53
691,196	-37,68
691,381	-42,8
691,567	-23,76
691,753	-43,83
691,938	-63,28
692,124	-36,66
692,309	-57,96
692,494	-39,94
692,68	-45,26
692,865	-61,44
693,051	-43,42
693,236	-2,25
693,422	-71,06
693,607	-20,68
693,792	-60,62
693,978	-32,97
694,163	-50,38
694,348	-55,91
694,534	-26,42
694,719	-51,4
694,904	-46,28
695,089	-46,69
695,275	-19,46
695,46	-66,76
695,645	-44,44
695,83	-17,41
696,016	-61,03
696,201	-33,18
696,386	-39,53
696,571	-62,05
696,756	-58,78
696,941	-23,76
697,126	-67,99
697,311	-57,75
697,497	-48,33
697,682	-60,01
697,867	-48,95
698,052	-22,73
698,237	-66,15
698,422	-48,13
698,607	-36,86
698,792	-31,74
698,977	-28,67
699,162	-26,01
699,347	-39,53
699,531	-36,66
699,716	-64,51
699,901	-61,44
700,086	-65,33
700,271	-62,05
700,456	-38,5
700,641	-46,69
700,825	-66,35
701,01	-66,35
701,195	-43,01
701,38	-77
701,565	-27,24
701,749	-43,83
701,934	-57,96
702,119	-66,15
702,303	-56,32
702,488	-38,71
702,673	-56,11
702,857	-60,42
703,042	-64,51
703,227	-46,49
703,411	-54,48
703,596	-29,49
703,78	-30,92
703,965	-37,07
704,15	-43,42
704,334	-38,71
704,519	-49,36
704,703	-73,73
704,888	-71,27
705,072	-45,26
705,257	-52,43
705,441	-47,51
705,625	-62,26
705,81	-18,84
705,994	-69,43
706,179	-27,44
706,363	-29,7
706,547	-18,64
706,732	-50,38
706,916	-13,52
707,1	-48,95
707,285	-37,07
707,469	-35,43
707,653	-28,06
707,837	-57,55
708,022	-43,62
708,206	-33,59
708,39	-45,87
708,574	-44,85
708,759	-16,18
708,943	-46,08
709,127	-13,52
709,311	-35,23
709,495	-16,18
709,679	-37,27
709,863	-16,38
710,047	-67,79
710,231	-38,91
710,415	-45,67
710,6	-22,53
710,784	-46,49
710,968	-42,6
711,152	-56,11
711,336	-72,29
711,519	-46,08
711,703	7,17
711,887	-61,44
712,071	-29,49
712,255	-39,94
712,439	-42,8
712,623	-17,41
712,807	-54,48
712,991	-45,46
713,174	-39,32
713,358	-34,61
713,542	-23,76
713,726	-30,31
713,91	-6,14
714,093	-39,73
714,277	-40,75
714,461	-25,19
714,645	-48,33
714,828	-20,27
715,012	-43,62
715,196	-52,84
715,379	-16,38
715,563	-18,43
715,747	-38,71
715,93	-52,84
716,114	-33,79
716,297	-36,45
716,481	-41,98
716,664	-54,89
716,848	-14,13
717,031	-16,59
717,215	-14,13
717,398	-8,6
717,582	-45,67
717,765	-58,16
717,949	-47,51
718,132	-39,94
718,316	-32,56
718,499	-36,45
718,682	-0,2
718,866	-16,18
719,049	-3,69
719,233	-13,31
719,416	-28,26
719,599	-3,07
719,782	-17,2
719,966	-36,66
720,149	-40,14
720,332	-36,04
720,515	-27,44
720,699	-21,5
720,882	-47,72
721,065	-32,36
721,248	-13,72
721,431	-36,66
721,615	-44,85
721,798	-28,26
721,981	-45,46
722,164	-33,79
722,347	-17,41
722,53	-15,97
722,713	-47,1
722,896	-11,06
723,079	-0,2
723,262	-13,52
723,445	-20,48
723,628	-15,36
723,811	-24,58
723,994	3,69
724,177	-26,42
724,36	-43,42
724,543	-55,3
724,726	-26,21
724,909	-13,93
725,091	-23,35
725,274	-50,38
725,457	-29,7
725,64	-42,19
725,823	-28,06
726,006	-34,2
726,188	-29,9
726,371	-10,24
726,554	-11,26
726,737	-59,19
726,919	-10,85
727,102	-18,64
727,285	-54,07
727,467	0,2
727,65	-5,53
727,833	-28,67
728,015	-36,66
728,198	-12,29
728,38	-32,77
728,563	-55,5
728,746	-28,47
728,928	-32,77
729,111	-26,42
729,293	-40,96
729,476	6,76
729,658	-6,14
729,841	-26,83
730,023	-11,26
730,205	-20,27
730,388	-29,7
730,57	-10,44
730,753	-22,32
730,935	-42,6
731,117	-13,93
731,3	-31,95
731,482	-29,49
731,664	-40,75
731,847	-10,65
732,029	-49,56
732,211	-41,37
732,394	-54,89
732,576	-3,28
732,758	-3,89
732,94	-6,35
733,122	-47,31
733,305	-31,33
733,487	-20,68
733,669	-55,7
733,851	-32,15
734,033	-34
734,215	-9,01
734,397	-1,23
734,58	-6,96
734,762	-14,95
734,944	-17,2
735,126	-29,7
735,308	-36,66
735,49	-33,59
735,672	-28,88
735,854	-61,85
736,036	-28,88
736,218	-8,81
736,399	-26,01
736,581	-16,59
736,763	-45,26
736,945	-40,34
737,127	-13,52
737,309	-23,76
737,491	-34
737,672	-27,65
737,854	-18,02
738,036	-33,18
738,218	-27,03
738,4	-38,3
738,581	-20,27
738,763	-49,77
738,945	-31,54
739,127	-54,27
739,308	-24,78
739,49	-30,51
739,672	-27,65
739,853	-41,16
740,035	-34,61
740,216	-39,32
740,398	-58,57
740,58	-12,7
740,761	-16,59
740,943	-31,13
741,124	-39,32
741,306	-55,91
741,487	-22,53
741,669	-23,35
741,85	-48,74
742,032	-24,37
742,213	-37,68
742,394	-47,72
742,576	-18,02
742,757	-31,54
742,939	-30,31
743,12	-24,78
743,301	-1,02
743,483	-55,5
743,664	-18,64
743,845	-21,71
744,027	-28,26
744,208	-32,77
744,389	-55,3
744,57	-30,51
744,752	-45,46
744,933	-30,92
745,114	-57,34
745,295	-12,9
745,476	-28,26
745,657	-43,62
745,839	-60,01
746,02	-20,89
746,201	-5,32
746,382	-31,13
746,563	-26,21
746,744	-27,65
746,925	-37,68
747,106	-12,9
747,287	-22,94
747,468	-31,95
747,649	-29,7
747,83	-43,62
748,011	-35,23
748,192	-19,66
748,373	-53,04
748,554	-20,68
748,735	-29,7
748,915	-16,59
749,096	-5,73
749,277	-22,32
749,458	-4,71
749,639	-5,94
749,82	-50,58
750	0,82
750,181	-34
750,362	-44,65
750,543	-13,11
750,723	-15,77
750,904	-49,97
751,085	-33,79
751,265	-38,5
751,446	-25,19
751,627	-41,16
751,807	-30,92
751,988	-35,43
752,169	-13,31
752,349	-6,14
752,53	-24,58
752,71	-37,27
752,891	-22,94
753,071	2,46
753,252	-31,74
753,432	-58,16
753,613	-46,9
753,793	-33,18
753,974	-56,73
754,154	-43,21
754,334	-4,51
754,515	-38,3
754,695	-24,78
754,876	-19,25
755,056	-22,73
755,236	-20,07
755,417	-50,79
755,597	-32,77
755,777	-30,72
755,957	-2,87
756,138	-27,44
756,318	-31,33
756,498	-26,42
756,678	-10,65
756,859	-13,72
757,039	-46,08
757,219	-20,48
757,399	-43,01
757,579	-37,07
757,759	-30,51
757,939	-44,03
758,119	1,23
758,3	4,51
758,48	6,55
758,66	-1,43
758,84	-11,26
759,02	15,77
759,2	5,53
759,38	-5,94
759,56	-3,48
759,74	-25,39
759,919	-17,2
760,099	11,06
760,279	-19,05
760,459	2,87
760,639	-10,65
760,819	-7,78
760,999	-7,58
761,178	13,31
761,358	-11,67
761,538	1,02
761,718	-9,63
761,898	2,05
762,077	12,08
762,257	20,07
762,437	-24,17
762,616	21,3
762,796	-14,54
762,976	-29,49
763,155	-18,02
763,335	-10,44
763,515	-13,93
763,694	-19,25
763,874	-21,5
764,053	-9,42
764,233	-29,7
764,413	-16,18
764,592	27,03
764,772	4,71
764,951	20,68
765,131	-17,61
765,31	-59,8
765,489	-28,06
765,669	-20,27
765,848	-27,44
766,028	-11,47
766,207	-18,64
766,386	-30,11
766,566	-18,84
766,745	-21,91
766,924	-13,72
767,104	-8,6
767,283	-17,61
767,462	-45,46
767,642	-23,14
767,821	-20,89
768	-1,43
768,179	-10,44
768,358	-18,23
768,538	-28,47
768,717	-17,61
768,896	-14,54
769,075	-20,68
769,254	-36,86
769,433	-34
769,612	-32,97
769,791	-42,39
769,97	-22,32
770,149	-30,92
770,328	-32,97
770,507	-28,47
770,686	-26,62
770,865	-3,07
771,044	-49,15
771,223	-6,76
771,402	-16,59
771,581	-27,44
771,76	1,84
771,939	-38,5
772,118	-21,91
772,297	-13,31
772,475	-2,25
772,654	9,01
772,833	-14,75
773,012	-18,64
773,191	-34,61
773,369	-10,24
773,548	-5,12
773,727	-28,26
773,906	15,56
774,084	-1,02
774,263	-4,1
774,442	-22,12
774,62	-4,1
774,799	-36,25
774,977	-3,28
775,156	-11,47
775,335	-1,64
775,513	-36,66
775,692	-31,74
775,87	-44,03
776,049	-33,38
776,227	-8,19
776,406	2,66
776,584	-41,16
776,763	-23,55
776,941	-30,51
777,119	-16,18
777,298	-27,24
777,476	8,4
777,655	-19,25
777,833	-20,89
778,011	0,41
778,19	14,75
778,368	-47,1
778,546	-11,67
778,725	-19,25
778,903	-30,92
779,081	-20,89
779,259	-27,03
779,437	10,85
779,616	-28,47
779,794	-7,58
779,972	-19,05
780,15	-8,81
780,328	-53,45
780,506	-2,87
780,685	0,61
780,863	-24,78
781,041	-10,24
781,219	-5,73
781,397	-1,84
781,575	-28,88
781,753	-34
781,931	-17,61
782,109	4,3
782,287	-29,49
782,465	-20,27
782,643	-17,82
782,82	-22,53
782,998	-21,09
783,176	-2,46
783,354	-32,15
783,532	-13,31
783,71	8,19
783,888	-20,68
784,065	-7,17
784,243	-6,14
784,421	-10,85
784,599	-22,73
784,776	2,25
784,954	-37,89
785,132	-37,48
785,31	-38,3
785,487	-2,25
785,665	-1,43
785,842	-13,72
786,02	10,85
786,198	7,58
786,375	-27,65
786,553	8,4
786,73	-13,72
786,908	-11,47
787,085	-18,02
787,263	-7,99
787,44	-14,34
787,618	-25,6
787,795	-43,01
787,973	-5,94
788,15	-28,47
788,328	-1,64
788,505	-15,56
788,682	0,2
788,86	-18,02
789,037	-1,64
789,215	-31,54
789,392	-28,26
789,569	-13,52
789,746	-23,55
789,924	-2,25
790,101	-3,69
790,278	0,61
790,455	-20,89
790,633	7,37
790,81	-7,78
790,987	-18,64
791,164	-5,12
791,341	-14,75
791,518	-9,42
791,695	-6,55
791,873	-14,34
792,05	-8,19
792,227	-37,68
792,404	-4,3
792,581	-54,48
792,758	0
792,935	7,17
793,112	11,26
793,289	-35,02
793,466	-13,52
793,643	-54,48
793,82	-19,87
793,996	-15,36
794,173	12,29
794,35	-18,23
794,527	0,61
794,704	-6,35
794,881	-10,24
795,057	-17,2
795,234	-28,06
795,411	23,55
795,588	-4,92
795,765	-10,85
795,941	-4,3
796,118	5,32
796,295	-24,99
796,471	1,23
796,648	-21,91
796,825	10,85
797,001	-59,6
797,178	-2,25
797,354	-13,31
797,531	-7,37
797,708	-16,18
797,884	38,71
798,061	-19,66
798,237	-28,67
798,414	-3,69
798,59	0,82
798,767	5,32
798,943	-14,34
799,119	18,64
799,296	-25,6
799,472	-28,88
799,649	-18,64
799,825	15,77
800,001	-26,42
800,178	-11,26
800,354	1,64
800,53	21,09
800,707	-2,05
800,883	-9,83
801,059	-17,41
801,235	17
801,411	0,61
801,588	-4,92
801,764	-28,26
801,94	-31,33
802,116	-16,79
802,292	-10,24
802,468	-5,73
802,645	20,48
802,821	10,44
802,997	13,11
803,173	9,01
803,349	-36,45
803,525	-6,96
803,701	-25,6
803,877	18,23
804,053	-22,53
804,229	6,14
804,405	-7,78
804,581	9,42
804,756	-3,48
804,932	-12,49
805,108	-22,53
805,284	-5,53
805,46	-8,4
805,636	7,37
805,812	-19,66
805,987	-16,18
806,163	-21,91
806,339	-20,48
806,515	-10,44
806,69	-9,63
806,866	-20,27
807,042	-13,11
807,217	-35,84
807,393	-7,37
807,569	-1,64
807,744	-4,92
807,92	27,85
808,096	26,21
808,271	-15,56
808,447	-3,28
808,622	-17,41
808,798	-21,91
808,973	-3,69
809,149	-18,43
809,324	-68,81
809,5	-3,48
809,675	0,41
809,851	-8,19
810,026	-18,02
810,201	10,65
810,377	-18,84
810,552	-32,97
810,728	-22,94
810,903	-14,54
811,078	-37,89
811,253	-1,84
811,429	-14,34
811,604	-1,43
811,779	-6,55
811,955	-19,25
812,13	-20,27
812,305	4,92
812,48	-25,6
812,655	-13,31
812,83	-29,29
813,006	14,75
813,181	-15,97
813,356	-23,14
813,531	0,82
813,706	-5,94
813,881	20,68
814,056	-23,55
814,231	18,43
814,406	26,62
814,581	-10,04
814,756	-13,52
814,931	11,26
815,106	-25,6
815,281	-31,95
815,456	-19,05
815,631	-2,46
815,805	13,31
815,98	-4,3
816,155	-6,96
816,33	7,58
816,505	-7,58
816,68	-19,66
816,854	32,97
817,029	-5,94
817,204	-19,46
817,379	-10,65
817,553	0,61
817,728	-13,72
817,903	-5,73
818,077	8,81
818,252	1,84
818,427	-3,69
818,601	13,52
818,776	-12,9
818,95	19,05
819,125	22,94
819,299	-5,53
819,474	28,88
819,648	-27,44
819,823	0,61
819,997	-1,64
820,172	-5,94
820,346	16,38
820,521	-2,25
820,695	-3,69
820,87	-19,05
821,044	-47,92
821,218	-22,12
821,393	22,12
821,567	-10,24
821,741	-11,26
821,916	-3,89
822,09	4,3
822,264	-26,83
822,438	-2,25
822,613	-3,07
822,787	-21,3
822,961	-19,66
823,135	-8,81
823,309	-5,32
823,483	-6,96
823,658	1,23
823,832	0,82
824,006	-10,24
824,18	7,37
824,354	-3,89
824,528	-3,69
824,702	-12,08
824,876	-39,53
825,05	6,14
825,224	2,05
825,398	-19,25
825,572	12,08
825,746	-3,07
825,92	0,2
826,093	-1,84
826,267	4,3
826,441	-1,43
826,615	-10,85
826,789	-30,11
826,963	-24,37
827,136	23,14
827,31	-3,89
827,484	-9,01
827,658	17
827,831	-7,17
828,005	16,18
828,179	-26,21
828,353	-13,31
828,526	-12,7
828,7	-12,7
828,873	-51,81
829,047	4,1
829,221	11,67
829,394	-27,03
829,568	-22,12
829,741	-24,99
829,915	-10,65
830,088	-9,63
830,262	1,64
830,435	-49,77
830,609	-19,25
830,782	-9,42
830,956	1,84
831,129	-16,38
831,302	-14,75
831,476	6,35
831,649	-7,58
831,822	-20,07
831,996	-27,85
832,169	5,73
832,342	-13,72
832,516	4,92
832,689	-6,35
832,862	0,61
833,035	6,35
833,209	21,5
833,382	13,31
833,555	-16,18
833,728	-16,18
833,901	13,72
834,074	3,89
834,247	-8,6
834,42	-21,5
834,594	-17,2
834,767	1,23
834,94	5,12
835,113	-9,01
835,286	-18,02
835,459	9,22
835,632	-10,44
835,805	-3,48
835,977	5,73
836,15	9,22
836,323	-14,13
836,496	17
836,669	9,22
836,842	4,71
837,015	17,61
837,188	-8,6
837,36	-36,66
837,533	14,34
837,706	-6,35
837,879	19,46
838,051	-18,43
838,224	9,42
838,397	7,17
838,569	-24,17
838,742	-10,85
838,915	-1,43
839,087	3,69
839,26	-12,7
839,433	-10,65
839,605	4,3
839,778	0
839,95	-8,81
840,123	-6,96
840,295	-33,18
840,468	16,59
840,64	-17,61
840,813	8,19
840,985	-6,14
841,158	-22,73
841,33	3,48
841,502	-1,64
841,675	-1,23
841,847	-12,49
842,019	-9,22
842,192	-2,05
842,364	4,71
842,536	5,12
842,709	-28,67
842,881	3,48
843,053	-6,76
843,225	8,81
843,398	-15,77
843,57	-1,84
843,742	7,17
843,914	6,55
844,086	-30,72
844,258	-0,82
844,43	11,88
844,602	-2,25
844,775	28,26
844,947	-11,47
845,119	-0,61
845,291	-5,32
845,463	9,83
845,635	13,93
845,807	7,17
845,979	-34,82
846,15	-20,07
846,322	-18,84
846,494	-37,27
846,666	0,61
846,838	-26,62
847,01	3,89
847,182	-10,04
847,354	11,47
847,525	23,14
847,697	-28,47
847,869	4,71
848,041	-11,06
848,212	3,28
848,384	-14,13
848,556	28,47
848,727	3,69
848,899	6,35
849,071	-20,48
849,242	4,51
849,414	1,23
849,585	-2,87
849,757	1,23
849,929	8,81
850,1	-5,94
850,272	-17,2
850,443	9,22
850,615	11,67
850,786	-8,81
850,958	-21,5
851,129	-17,61
851,3	18,64
851,472	-8,81
851,643	4,51
851,815	-23,35
851,986	-13,52
852,157	-3,89
852,329	16,59
852,5	-5,73
852,671	3,28
852,842	1,43
853,014	8,81
853,185	8,19
853,356	-9,63
853,527	-10,65
853,698	-2,25
853,87	14,95
854,041	22,53
854,212	3,07
854,383	9,22
854,554	-4,71
854,725	-10,65
854,896	-22,12
855,067	-23,55
855,238	8,6
855,409	39,32
855,58	8,6
855,751	-29,49
855,922	-0
856,093	14,13
856,264	-1,23
856,435	-28,26
856,606	19,25
856,777	11,47
856,948	-29,49
857,118	-2,87
857,289	5,73
857,46	23,14
857,631	12,7
857,802	-0,41
857,972	-38,3
858,143	21,3
858,314	13,72
858,484	-22,53
858,655	-2,66
858,826	26,62
858,996	5,73
859,167	28,67
859,338	-0,61
859,508	5,12
859,679	-3,48
859,849	-22,12
860,02	-18,23
860,19	8,6
860,361	15,56
860,531	11,06
860,702	-18,23
860,872	24,99
861,043	-17,61
861,213	8,4
861,384	-6,55
861,554	8,19
861,724	-25,19
861,895	9,63
862,065	-1,02
862,235	-11,47
862,406	-21,3
862,576	2,66
862,746	-9,01
862,916	38,5
863,087	3,48
863,257	-13,93
863,427	-5,32
863,597	-9,01
863,767	12,29
863,937	5,73
864,108	-9,42
864,278	24,78
864,448	-26,21
864,618	13,93
864,788	-14,95
864,958	-8,19
865,128	20,07
865,298	-14,75
865,468	18,84
865,638	8,6
865,808	-3,07
865,978	-1,64
866,148	12,7
866,318	-6,96
866,487	-15,77
866,657	-13,93
866,827	-4,1
866,997	2,46
867,167	0
867,337	-20,07
867,506	3,28
867,676	0,41
867,846	-5,12
868,016	-9,01
868,185	4,3
868,355	-9,22
868,525	6,14
868,694	6,35
868,864	24,58
869,034	22,94
869,203	-20,48
869,373	-0,61
869,542	16,79
869,712	21,3
869,881	17,61
870,051	-10,44
870,22	-27,44
870,39	26,01
870,559	-0,2
870,729	-26,42
870,898	8,4
871,068	3,89
871,237	20,89
871,406	-1,02
871,576	6,14
871,745	23,35
871,914	2,46
872,084	-1,64
872,253	55,3
872,422	10,24
872,591	-10,85
872,761	-6,96
872,93	3,69
873,099	-9,22
873,268	5,73
873,437	-11,67
873,607	-15,56
873,776	20,68
873,945	30,92
874,114	0,61
874,283	-16,18
874,452	-14,75
874,621	9,22
874,79	26,83
874,959	-46,28
875,128	0,2
875,297	-12,08
875,466	14,13
875,635	10,04
875,804	5,73
875,973	-28,47
876,142	-1,84
876,31	0,2
876,479	-5,53
876,648	29,49
876,817	-24,78
876,986	-3,28
877,155	13,93
877,323	-33,79
877,492	8,4
877,661	53,66
877,829	-28,47
877,998	-6,55
878,167	-22,73
878,335	10,04
878,504	12,49
878,673	2,66
878,841	-16,79
879,01	-9,01
879,178	-4,51
879,347	-19,66
879,515	13,31
879,684	13,11
879,852	-9,63
880,021	-9,42
880,189	-9,63
880,358	3,28
880,526	2,05
880,695	-18,43
880,863	-11,88
881,031	6,35
881,2	-25,6
881,368	-37,68
881,536	-3,89
881,705	-13,72
881,873	-6,76
882,041	26,21
882,21	-5,32
882,378	9,42
882,546	3,69
882,714	12,7
882,882	10,04
883,05	-15,56
883,219	-7,99
883,387	-11,47
883,555	-14,75
883,723	-44,85
883,891	8,4
884,059	22,32
884,227	39,32
884,395	-10,24
884,563	12,29
884,731	12,7
884,899	-13,72
885,067	5,12
885,235	-1,64
885,403	-14,13
885,571	-5,53
885,739	-15,77
