Data from Subt18__5__10-58-44-514.txt Node

Date: Mon Feb 19 10:58:44 CET 2024
User: Versuch 234
Spectrometer: USB4F03543
Trigger mode: 4
Integration Time (sec): 5,000000E-3
Scans to average: 800
Electric dark correction enabled: true
Nonlinearity correction enabled: false
Boxcar width: 0
XAxis mode: Wavelengths
Number of Pixels in Spectrum: 3648
>>>>>Begin Spectral Data<<<<<
179,969	131,28
180,181	131,28
180,394	131,28
180,606	131,9
180,819	145,32
181,031	-18,85
181,243	-40,08
181,456	20,46
181,668	-2,49
181,88	-35,67
182,093	11,14
182,305	42,45
182,518	44,97
182,73	-45,62
182,942	-1,82
183,155	18,72
183,367	6,79
183,579	-23,68
183,791	-49,26
184,004	5,99
184,216	-1,88
184,428	-6,25
184,641	-10,87
184,853	26,9
185,065	18,33
185,277	-7,92
185,49	-32,62
185,702	42,3
185,914	27,45
186,126	-19,45
186,338	-9,53
186,551	-22,07
186,763	-20,07
186,975	33,94
187,187	-17,18
187,399	4,42
187,612	-34,6
187,824	0,44
188,036	-18,96
188,248	-21,37
188,46	-4,1
188,672	-13,38
188,885	18,64
189,097	-52,96
189,309	21,46
189,521	-1,52
189,733	-6,6
189,945	-10,19
190,157	-25,98
190,369	32,82
190,581	5,76
190,794	-25,83
191,006	27,84
191,218	0,1
191,43	-24,12
191,642	24,57
191,854	-1
192,066	-46,73
192,278	-9,08
192,49	23,04
192,702	18,4
192,914	16,63
193,126	25,37
193,338	-18,69
193,55	9,95
193,762	-14,31
193,974	52,59
194,186	28,06
194,398	23,63
194,61	-11,14
194,822	-3,58
195,034	-22,25
195,246	-34,31
195,457	24,71
195,669	-47,53
195,881	-19,79
196,093	14,99
196,305	6,36
196,517	46,08
196,729	-25,82
196,941	21,83
197,153	-49,36
197,365	-39,07
197,576	34,76
197,788	52,22
198	-28,1
198,212	-50,03
198,424	-25,02
198,636	37,7
198,847	6,07
199,059	9,81
199,271	30,32
199,483	-18,34
199,695	4,36
199,906	-14,35
200,118	26,96
200,33	-17,94
200,542	-239,34
200,753	9,39
200,965	5,17
201,177	-20,21
201,389	-11,17
201,6	41,84
201,812	0,57
202,024	1,76
202,235	13,88
202,447	-56,78
202,659	-60,94
202,871	-11,74
203,082	0,86
203,294	19,88
203,506	-13,47
203,717	6,11
203,929	-12,81
204,141	24,03
204,352	-51,89
204,564	21,64
204,775	3,76
204,987	-62,84
205,199	-16,28
205,41	14
205,622	-44,85
205,833	38,21
206,045	-23,73
206,257	-17,81
206,468	39,89
206,68	23,27
206,891	9,15
207,103	44,88
207,314	36,51
207,526	-24,36
207,737	12,58
207,949	4,9
208,16	-8,52
208,372	-5,68
208,583	-24,15
208,795	7,67
209,006	-1,92
209,218	17,48
209,429	23,31
209,641	24,04
209,852	12,43
210,064	-17,18
210,275	21,69
210,487	-13,76
210,698	-48,06
210,909	-3,56
211,121	-25,7
211,332	1,4
211,544	-40,14
211,755	-38,41
211,966	-42,27
212,178	-1,22
212,389	-82,2
212,6	10,88
212,812	-55,46
213,023	3,63
213,234	-18,97
213,446	-22,59
213,657	19,12
213,868	-49,23
214,08	-43,65
214,291	-19,81
214,502	-18,35
214,714	32,23
214,925	0,77
215,136	16,45
215,347	19,15
215,559	42,53
215,77	10,27
215,981	-48
216,192	39,08
216,404	-8,84
216,615	-26,11
216,826	-2,67
217,037	7,76
217,249	-8,98
217,46	-44,32
217,671	-8,52
217,882	-6,38
218,093	-0,99
218,304	13,02
218,516	-9,99
218,727	19,3
218,938	16,56
219,149	-76
219,36	5,84
219,571	-22,26
219,782	-8,15
219,993	-52,98
220,205	41,65
220,416	-45,47
220,627	-15,15
220,838	-38,73
221,049	-94,8
221,26	-67,42
221,471	25,72
221,682	-17,47
221,893	-47,73
222,104	50,32
222,315	58,8
222,526	42,47
222,737	-15,22
222,948	-5
223,159	-12,43
223,37	-16,99
223,581	9,93
223,792	22,43
224,003	19,73
224,214	26,48
224,425	-0,79
224,636	25,6
224,847	-23,55
225,058	1,65
225,269	13,68
225,48	14,44
225,691	34,54
225,902	-29,47
226,112	5,42
226,323	31,53
226,534	19,83
226,745	26,97
226,956	37,78
227,167	12,86
227,378	-28,69
227,589	23,51
227,799	-41,98
228,01	-15,48
228,221	35,96
228,432	12,03
228,643	26,57
228,853	12,4
229,064	29,79
229,275	-21,45
229,486	24,79
229,697	20,44
229,907	22,4
230,118	-13,44
230,329	23,64
230,54	15,89
230,75	-49,31
230,961	-23,34
231,172	10,81
231,383	36,73
231,593	16,34
231,804	-22,43
232,015	4,95
232,225	-23,21
232,436	-5,86
232,647	-36,4
232,857	-22,25
233,068	5,33
233,279	-19,42
233,489	6,77
233,7	-18,92
233,91	20,38
234,121	-13,07
234,332	5,35
234,542	10,06
234,753	27,5
234,964	-10,51
235,174	10,97
235,385	-13,3
235,595	-4,12
235,806	-49,64
236,016	19,27
236,227	2
236,437	27,41
236,648	1,04
236,858	14,85
237,069	30,15
237,279	24,93
237,49	10,26
237,7	-5,53
237,911	-13,38
238,121	44
238,332	4,43
238,542	-8,98
238,753	12,87
238,963	13,41
239,174	0,55
239,384	2,5
239,595	15,47
239,805	25,42
240,015	21,02
240,226	4,6
240,436	-10,84
240,647	3,35
240,857	19,05
241,067	11,87
241,278	-103,73
241,488	16,07
241,698	-29,05
241,909	15,87
242,119	12,68
242,329	-13,59
242,54	-21,51
242,75	6,37
242,96	23,89
243,171	9,77
243,381	-11,64
243,591	31,37
243,801	-32,11
244,012	-63,25
244,222	0,7
244,432	48,6
244,642	10,71
244,853	25,45
245,063	15,81
245,273	-20,08
245,483	1,35
245,694	-1,65
245,904	-1,88
246,114	-22
246,324	35
246,534	9,13
246,744	13,66
246,955	59,04
247,165	-38,11
247,375	-48,76
247,585	8,32
247,795	6,06
248,005	-11,26
248,215	-50,93
248,425	-5,99
248,636	-99,02
248,846	37,4
249,056	-12,14
249,266	19,92
249,476	-1,19
249,686	-8,53
249,896	24,86
250,106	-9,12
250,316	13,08
250,526	-71,41
250,736	29,24
250,946	-51,21
251,156	-46,62
251,366	2,07
251,576	-16,12
251,786	-35,54
251,996	36,63
252,206	17,29
252,416	-4,7
252,626	27,32
252,836	30,87
253,046	-3,79
253,256	-16,89
253,466	13,82
253,676	-12,38
253,885	-27,68
254,095	-9,36
254,305	-23,18
254,515	-18,09
254,725	8,45
254,935	23,82
255,145	-8,41
255,355	-26,22
255,564	9,82
255,774	0,03
255,984	-39,81
256,194	-22,21
256,404	21,65
256,614	-41,36
256,823	-39,79
257,033	20,78
257,243	-20,85
257,453	-1,39
257,662	7,67
257,872	-18,28
258,082	-5,6
258,292	36,19
258,501	-91,03
258,711	-107,13
258,921	-64,16
259,131	37,74
259,34	17,05
259,55	-13,03
259,76	13,83
259,969	-1,8
260,179	31,45
260,389	-16,78
260,598	-41,69
260,808	-24,45
261,018	9,46
261,227	-39,71
261,437	25,68
261,647	-42,41
261,856	22,76
262,066	-16,81
262,275	-54,29
262,485	-7,07
262,694	-30,77
262,904	-6,1
263,114	-32,85
263,323	11,8
263,533	21,44
263,742	17,01
263,952	8,76
264,161	24,83
264,371	8,9
264,58	13,02
264,79	15,72
264,999	6,25
265,209	-21,48
265,418	-13,58
265,628	-0,06
265,837	-30,83
266,047	-9,99
266,256	-65,77
266,466	35,45
266,675	42,83
266,884	14,93
267,094	6,96
267,303	-59,07
267,513	-6,72
267,722	-37,42
267,931	-24,55
268,141	24,24
268,35	-8,24
268,559	-30,96
268,769	11,75
268,978	33,6
269,187	-26,43
269,397	18,82
269,606	43,08
269,815	14,77
270,025	-16,41
270,234	-45,56
270,443	22,14
270,653	-9,18
270,862	-23,51
271,071	2,14
271,28	8,29
271,49	12,29
271,699	29,43
271,908	-23,08
272,117	-10,09
272,327	13,87
272,536	-6,16
272,745	11,9
272,954	20,09
273,163	-22,45
273,372	-54,27
273,582	18,42
273,791	-5,77
274	29,05
274,209	17,13
274,418	-34,62
274,627	-66,31
274,836	12,05
275,046	-22,14
275,255	-12,23
275,464	4,2
275,673	26,2
275,882	-33,66
276,091	9,47
276,3	-15,51
276,509	-4,76
276,718	-9,11
276,927	17,36
277,136	-15,09
277,345	1,42
277,554	-20,92
277,763	-30,56
277,972	-17,41
278,181	-7,72
278,39	25,72
278,599	-22,76
278,808	20,98
279,017	-18,77
279,226	44,11
279,435	6,21
279,644	-9,42
279,853	-23,63
280,062	-83,96
280,271	12,94
280,48	19,2
280,688	8,34
280,897	-38,61
281,106	26,48
281,315	34,78
281,524	6,32
281,733	0,46
281,942	17,24
282,151	-17,82
282,359	-28,66
282,568	35
282,777	-3,98
282,986	16,81
283,195	-5
283,403	-21,53
283,612	4,02
283,821	19,57
284,03	19,24
284,238	22,89
284,447	-19,53
284,656	11,88
284,865	-27,71
285,073	18,15
285,282	1,49
285,491	13,67
285,699	28,93
285,908	-1,02
286,117	25,04
286,325	-4,82
286,534	-51,57
286,743	-1,35
286,951	-7,02
287,16	-20,07
287,369	22,35
287,577	-21,65
287,786	35,57
287,995	18,87
288,203	6,3
288,412	-2,16
288,62	-7,85
288,829	23,81
289,037	45,73
289,246	-0,4
289,455	0,99
289,663	-35,11
289,872	-38,93
290,08	-19,19
290,289	-46,29
290,497	33,41
290,706	-23,26
290,914	37,99
291,123	38,55
291,331	11,18
291,54	-50,62
291,748	-61,32
291,957	-6,82
292,165	17,11
292,373	44,96
292,582	-1,68
292,79	-11,53
292,999	-11,46
293,207	-18,03
293,415	2,75
293,624	64,84
293,832	10,7
294,041	-19,63
294,249	4,33
294,457	29,49
294,666	2,53
294,874	54,61
295,082	-25,24
295,291	-15,03
295,499	3,8
295,707	5,13
295,915	-5,97
296,124	-38,55
296,332	-5,53
296,54	7,02
296,749	-37,43
296,957	-27,43
297,165	11,6
297,373	10,72
297,581	0,79
297,79	4,82
297,998	21,59
298,206	40,36
298,414	10,25
298,622	-33,38
298,831	-34,93
299,039	29,25
299,247	-17,14
299,455	6,82
299,663	-44,57
299,871	23,25
300,08	-10,33
300,288	-3,14
300,496	22,6
300,704	5,72
300,912	7,46
301,12	3,9
301,328	8,27
301,536	4,63
301,744	25,99
301,952	-16,96
302,16	39,91
302,368	-0,14
302,576	11,45
302,784	-20,5
302,992	20,69
303,2	12,83
303,408	5,09
303,616	13,92
303,824	-34,5
304,032	-34,27
304,24	-46,44
304,448	-8,97
304,656	17,94
304,864	-45,13
305,072	-33,77
305,28	-9,21
305,488	16,38
305,696	-30,73
305,904	-3,47
306,111	59,85
306,319	29,76
306,527	-20,37
306,735	1,85
306,943	-27,78
307,151	23,74
307,359	33,68
307,566	-45,37
307,774	-44,76
307,982	-27,25
308,19	33,09
308,398	14,4
308,605	15,72
308,813	23,15
309,021	9,39
309,229	-29,65
309,436	29,68
309,644	-41,03
309,852	-17,44
310,06	-60,88
310,267	11,56
310,475	-7,66
310,683	-33,51
310,89	-20,74
311,098	-45,86
311,306	20,7
311,513	0,03
311,721	10,24
311,929	-13,01
312,136	24,26
312,344	-15,1
312,552	-40,56
312,759	34,69
312,967	-19,76
313,174	-26,97
313,382	-19,89
313,589	-16,12
313,797	-46,18
314,005	-3,8
314,212	-10,41
314,42	40,79
314,627	18,42
314,835	5,02
315,042	-0,12
315,25	52,42
315,457	24,48
315,665	69,98
315,872	-29,49
316,08	-28,13
316,287	24,23
316,495	-216,35
316,702	34,37
316,909	23,05
317,117	-55,68
317,324	0,39
317,532	-31,17
317,739	43,99
317,946	7,94
318,154	5,34
318,361	37,15
318,569	-3,8
318,776	29,96
318,983	51,4
319,191	8,97
319,398	0,65
319,605	16,86
319,813	-33,35
320,02	64,33
320,227	-30,86
320,434	-35,81
320,642	5,17
320,849	2,93
321,056	-11,75
321,264	-13,43
321,471	2,24
321,678	-36,26
321,885	29,84
322,092	-39,36
322,3	-2,17
322,507	32,15
322,714	-10,31
322,921	14,46
323,128	33,91
323,336	6,67
323,543	-28,39
323,75	-26,22
323,957	-13,81
324,164	-22,11
324,371	-6,64
324,578	56,62
324,786	-41,55
324,993	13,62
325,2	-7,81
325,407	64,17
325,614	-10,63
325,821	-58,84
326,028	-88,1
326,235	-19,46
326,442	-31,43
326,649	35,07
326,856	-19,64
327,063	52,28
327,27	-9,6
327,477	25,72
327,684	40,32
327,891	41,76
328,098	-29,66
328,305	-24,3
328,512	22,9
328,719	-31,05
328,926	-56,42
329,133	22,7
329,34	-59,78
329,546	12,49
329,753	32,99
329,96	90,35
330,167	22,67
330,374	37,88
330,581	21,33
330,788	54,17
330,995	13,21
331,201	7,7
331,408	-1,13
331,615	10,97
331,822	23,69
332,029	13,02
332,235	-5,57
332,442	4,79
332,649	12,18
332,856	24,34
333,062	-3,34
333,269	-1,56
333,476	-10,31
333,683	4,01
333,889	-20,38
334,096	7,36
334,303	-28,33
334,509	7,87
334,716	-8,31
334,923	-9,23
335,129	19,42
335,336	-33,83
335,543	2,93
335,749	11,89
335,956	-44,88
336,163	48,63
336,369	-37,24
336,576	-7,01
336,782	-14,96
336,989	32,28
337,196	-1,41
337,402	31,22
337,609	12,45
337,815	16,15
338,022	-35,79
338,228	-36,42
338,435	-101,13
338,641	-43,63
338,848	-51,18
339,054	-43,48
339,261	24,09
339,467	33,93
339,674	-9,98
339,88	-6,55
340,087	-15,53
340,293	12,94
340,5	6,03
340,706	-22,03
340,912	22,52
341,119	34,16
341,325	27,46
341,532	-1,9
341,738	23,29
341,944	-7,1
342,151	17,03
342,357	18,93
342,563	-10,81
342,77	3,2
342,976	8,88
343,182	-86,4
343,389	16,82
343,595	13,9
343,801	25,57
344,007	-25,41
344,214	30,41
344,42	5,75
344,626	8,24
344,832	14,83
345,039	-27,21
345,245	10,11
345,451	34,9
345,657	-1,9
345,864	25,34
346,07	17,78
346,276	-3,05
346,482	-43,37
346,688	-27,59
346,894	39,33
347,1	-3,57
347,307	-7,83
347,513	-43,88
347,719	-12,35
347,925	-38,13
348,131	43,58
348,337	-68,92
348,543	15,82
348,749	6,62
348,955	-60,17
349,161	15,22
349,367	-4,56
349,573	-32,35
349,779	-30,93
349,985	-11,15
350,191	-23,85
350,397	-2,14
350,603	-29
350,809	11,75
351,015	-42,15
351,221	-0,59
351,427	-27,36
351,633	-25,49
351,839	-37,86
352,045	-20,81
352,251	-61,62
352,457	-18,85
352,663	-30,6
352,869	-1,64
353,075	-23,96
353,28	21,56
353,486	-18,24
353,692	-21,95
353,898	-14,89
354,104	11,8
354,31	-20,63
354,515	46,25
354,721	-50,65
354,927	-26,78
355,133	-40,81
355,339	1,88
355,544	-46,92
355,75	-4,58
355,956	-24,59
356,162	-7,89
356,367	15,24
356,573	-0,47
356,779	5,31
356,984	-52,14
357,19	-58,28
357,396	-16,36
357,602	-95,63
357,807	-3,4
358,013	-13,84
358,218	-23,85
358,424	-1,94
358,63	16,01
358,835	-2,35
359,041	2,64
359,247	-17,41
359,452	7,71
359,658	11,43
359,863	-29,61
360,069	-20,28
360,274	-37,55
360,48	-63,89
360,685	-21,27
360,891	-54,93
361,097	-8,6
361,302	-9,82
361,508	-57,53
361,713	-4,02
361,918	-56,91
362,124	9,41
362,329	-6,93
362,535	-40,77
362,74	17,07
362,946	-36,71
363,151	-24,17
363,357	-14,78
363,562	11,95
363,767	28,36
363,973	-52,24
364,178	9,04
364,383	30,58
364,589	-13,53
364,794	18,68
365	-46,01
365,205	-28,79
365,41	7,39
365,615	-21,37
365,821	3,85
366,026	-55,28
366,231	-25,85
366,437	-22,37
366,642	6,7
366,847	-59,94
367,052	10,1
367,258	30,47
367,463	12,7
367,668	0,18
367,873	-71,15
368,078	-57,7
368,284	34,03
368,489	13,25
368,694	-38,52
368,899	-40,44
369,104	-29,02
369,309	-36,56
369,515	12,18
369,72	-71,22
369,925	8,89
370,13	-45,55
370,335	-61,09
370,54	-11,2
370,745	-19,89
370,95	-38,89
371,155	-74,07
371,36	-29,39
371,565	-34,29
371,77	-14,25
371,975	12,64
372,18	-63,73
372,385	-38,93
372,59	-48,82
372,795	-10,2
373	-41,66
373,205	-37,95
373,41	-30,21
373,615	-2,37
373,82	24,65
374,025	-10,27
374,23	33,17
374,435	-50,9
374,64	-39,69
374,845	-42,05
375,05	-14,68
375,254	-22,95
375,459	3,96
375,664	4,37
375,869	-9,5
376,074	-10,25
376,279	6,34
376,483	-4,11
376,688	3,93
376,893	-60,39
377,098	12,26
377,303	-29,61
377,507	-22,92
377,712	-98,69
377,917	-37,8
378,122	-40,88
378,326	-6,06
378,531	5,39
378,736	-38,77
378,94	13,07
379,145	-11,08
379,35	-54,67
379,554	-12,69
379,759	21,79
379,964	-32,82
380,168	12,53
380,373	-41,81
380,578	-50,86
380,782	-98,52
380,987	-24,78
381,191	-26,33
381,396	-28,67
381,601	-35,58
381,805	-30,73
382,01	-124,73
382,214	-33,28
382,419	-10,28
382,623	-36,73
382,828	-22,44
383,032	-18,62
383,237	43
383,441	4,6
383,646	-58,18
383,85	1,11
384,055	-25,65
384,259	-7,85
384,464	22,33
384,668	9,47
384,872	-5,85
385,077	13,06
385,281	-9,38
385,486	-2,56
385,69	-13,85
385,894	-61,3
386,099	-50,07
386,303	-29,85
386,507	-45,72
386,712	-93,38
386,916	-15,14
387,12	1,78
387,325	-61,04
387,529	-32,38
387,733	-43,82
387,937	-5,62
388,142	4,21
388,346	24,83
388,55	-64,36
388,754	-26,1
388,959	2,41
389,163	-2,68
389,367	-22,37
389,571	-15,81
389,775	-71,02
389,98	-39,69
390,184	-5,57
390,388	-26,44
390,592	-27,07
390,796	-30,94
391	-25,7
391,204	6,29
391,409	-1,85
391,613	-17,87
391,817	4,1
392,021	-76,41
392,225	-17,09
392,429	5,31
392,633	6,58
392,837	1,13
393,041	-14,96
393,245	-15,18
393,449	4,62
393,653	-27,56
393,857	-69,41
394,061	-50,43
394,265	-42,46
394,469	-38,88
394,673	-49,1
394,877	-44,6
395,081	-43,52
395,285	-73,18
395,489	-30,19
395,693	-37,63
395,896	-13,8
396,1	-44,88
396,304	-58,52
396,508	3,49
396,712	-29,02
396,916	-13,17
397,12	-29,12
397,323	-76,89
397,527	-40,28
397,731	-94,57
397,935	-61,45
398,139	-15,13
398,342	-59,35
398,546	-53,46
398,75	-28,45
398,954	-36,02
399,157	-72,26
399,361	-79,99
399,565	-7,01
399,769	-110,85
399,972	-69,44
400,176	-67,93
400,38	-47,27
400,583	-51,98
400,787	-50,17
400,991	-65,92
401,194	-40,47
401,398	-79,39
401,601	-61,29
401,805	-67,38
402,009	-71,83
402,212	-55,37
402,416	-151,57
402,619	-33,67
402,823	-91,21
403,026	-32,04
403,23	-20,38
403,433	-105,66
403,637	-64,59
403,841	-87,78
404,044	-49,55
404,247	-58,78
404,451	-73,77
404,654	-95,47
404,858	-63,73
405,061	-48,73
405,265	-37,79
405,468	-60,58
405,672	-53,42
405,875	-74,41
406,078	-38,59
406,282	-31,39
406,485	-36,59
406,689	-92,02
406,892	-113,18
407,095	-27,35
407,299	-60,43
407,502	-94,11
407,705	-39,13
407,909	-62,25
408,112	-73,08
408,315	-75,49
408,518	-125,32
408,722	-72,44
408,925	-74,1
409,128	-102,6
409,331	-69,49
409,535	-126,35
409,738	-98,81
409,941	-128,22
410,144	-68,21
410,347	-128,57
410,551	-117,18
410,754	-104,74
410,957	-65,97
411,16	-59,87
411,363	-103,04
411,566	-76,7
411,769	-85,77
411,973	-70,99
412,176	-129,06
412,379	-120,18
412,582	-115,48
412,785	-93,47
412,988	-42,06
413,191	-77,09
413,394	-83,05
413,597	-62,55
413,8	-39,88
414,003	-139,38
414,206	-37,49
414,409	-96,99
414,612	-77,38
414,815	-91,4
415,018	-75,91
415,221	-66,98
415,424	-124,95
415,627	-76,97
415,83	-87,14
416,033	-114,1
416,235	-94,97
416,438	-100,16
416,641	-142,77
416,844	-90,36
417,047	-48,47
417,25	-50,91
417,453	-78,58
417,655	-55,28
417,858	-97,39
418,061	-26,5
418,264	-78,58
418,467	-31,51
418,669	-78,41
418,872	-138,26
419,075	-59,04
419,278	-87,89
419,48	-122,46
419,683	-71,65
419,886	-47,22
420,089	-66,88
420,291	-118,79
420,494	-50,76
420,697	-78,25
420,899	-134,89
421,102	-46,37
421,305	-97,44
421,507	-97,57
421,71	-104,29
421,912	-94,67
422,115	-47,77
422,318	-80,43
422,52	-94,63
422,723	-68,15
422,925	-93,92
423,128	-129,17
423,33	-41,41
423,533	-76,97
423,735	-76,99
423,938	-71,08
424,14	-76,31
424,343	-170,15
424,545	-102,79
424,748	-115,11
424,95	-108,14
425,153	-64,82
425,355	-74,22
425,558	-105,56
425,76	-102,53
425,962	-88,2
426,165	-79,06
426,367	-55,6
426,57	-90,48
426,772	-60,55
426,974	-105,12
427,177	-60,9
427,379	-82,73
427,581	-132,37
427,784	-71,07
427,986	-55,07
428,188	-107,88
428,39	-45,34
428,593	-70,22
428,795	-119,95
428,997	-123,6
429,2	-51,34
429,402	-92,65
429,604	-30,34
429,806	-91,74
430,008	-134,17
430,211	-78,47
430,413	-65,97
430,615	-82,59
430,817	-80,54
431,019	-68,23
431,221	-105,94
431,423	-50,61
431,626	-91,37
431,828	-90,83
432,03	-60,15
432,232	-107,03
432,434	-110,19
432,636	-117,26
432,838	-58,11
433,04	-114,06
433,242	-83,42
433,444	-103,36
433,646	-113,7
433,848	-65,13
434,05	-104,42
434,252	-81,62
434,454	-89,61
434,656	-74,35
434,858	-97,07
435,06	-68,55
435,262	-130,59
435,464	-87,57
435,666	-155,8
435,868	-161,27
436,07	-128,41
436,271	-105,36
436,473	-100,51
436,675	-135,67
436,877	-90,03
437,079	-114,73
437,281	-54,51
437,482	-111,1
437,684	-46,76
437,886	-68,17
438,088	-113,2
438,29	-82,07
438,491	-104,07
438,693	-90,36
438,895	-103,52
439,097	-148,58
439,298	-95,08
439,5	-82,31
439,702	-68,65
439,903	-94,27
440,105	-107,34
440,307	-150,26
440,508	-122,34
440,71	-76,5
440,912	-156,5
441,113	-78,27
441,315	-127,93
441,517	-115,96
441,718	-131,07
441,92	-121,15
442,121	-144,74
442,323	-99,45
442,524	-90,03
442,726	-118,52
442,928	-96,67
443,129	-109,72
443,331	-121,9
443,532	-137,44
443,734	-94,48
443,935	-133,98
444,136	-91,61
444,338	-125,34
444,539	-143,68
444,741	-126,73
444,942	-110,11
445,144	-152,85
445,345	-157,28
445,546	-98,11
445,748	-131,33
445,949	-112,67
446,151	-79,85
446,352	-92,49
446,553	-197,48
446,755	-122,32
446,956	-124,83
447,157	-124,86
447,359	-127,26
447,56	-128,12
447,761	-110,19
447,962	-126,27
448,164	-119,98
448,365	-122,35
448,566	-157,06
448,767	-70,97
448,969	-179,52
449,17	-132,5
449,371	-111,09
449,572	-155,93
449,773	-113,07
449,974	-153,34
450,176	-162,47
450,377	-156,48
450,578	-142,16
450,779	-129,91
450,98	-69,23
451,181	-124,76
451,382	-127,53
451,583	-135,84
451,784	-123,39
451,986	-109,76
452,187	-136,71
452,388	-119,98
452,589	-143,64
452,79	-123,69
452,991	-102,82
453,192	-161,71
453,393	-116,11
453,594	-150,98
453,795	-92,38
453,995	-75,08
454,196	-127,07
454,397	-119,91
454,598	-77,36
454,799	-82,31
455	-191,59
455,201	-99,84
455,402	-205,26
455,603	-125,93
455,804	-128,18
456,004	-103,53
456,205	-117,73
456,406	-118,82
456,607	-131,3
456,808	-188,91
457,008	-93,37
457,209	-87,18
457,41	-129,91
457,611	-135,92
457,811	-236,53
458,012	-142,92
458,213	-98,46
458,414	-145,96
458,614	-132,75
458,815	-111,3
459,016	-217,09
459,216	-164,09
459,417	-122,22
459,618	-150,98
459,818	-151,2
460,019	-107,09
460,22	-91,59
460,42	-149,96
460,621	-149,62
460,821	-151,8
461,022	-191,12
461,223	-160,82
461,423	-111,05
461,624	-140,6
461,824	-101,22
462,025	-119,88
462,225	-106,65
462,426	-152,49
462,626	-108,16
462,827	-141,24
463,027	-160,33
463,228	-146,11
463,428	-150,56
463,628	-157,06
463,829	-194,76
464,029	-107,6
464,23	-114,75
464,43	-151,76
464,63	-94,25
464,831	-87,12
465,031	-152,89
465,231	-112,96
465,432	-152,09
465,632	-247,21
465,832	-109,59
466,033	-138
466,233	-136,88
466,433	-207,83
466,634	-139,23
466,834	-184,47
467,034	-115,71
467,234	-190,2
467,435	-149,45
467,635	-144,24
467,835	-111,62
468,035	-158,76
468,235	-137,85
468,436	-170,02
468,636	-150,36
468,836	-97,06
469,036	-171,66
469,236	-162,57
469,436	-136,79
469,636	-223,98
469,836	-141,46
470,037	-136,28
470,237	-152,53
470,437	-224
470,637	-142,37
470,837	-149,89
471,037	-182,88
471,237	-153,48
471,437	-183,42
471,637	-166,03
471,837	-184,78
472,037	-153,2
472,237	-194,49
472,437	-153,56
472,637	-231,7
472,837	-159,69
473,036	-156,7
473,236	-239,89
473,436	-175,71
473,636	-169,74
473,836	-137,52
474,036	-195,65
474,236	-130
474,436	-172,98
474,635	-174,71
474,835	-191,47
475,035	-221,51
475,235	-185,56
475,435	-207,59
475,634	-171,09
475,834	-197,95
476,034	-213,17
476,234	-152,07
476,433	-176,8
476,633	-279,35
476,833	-212,24
477,033	-187,15
477,232	-153,39
477,432	-202,78
477,632	-296,44
477,831	-220,14
478,031	-202,74
478,231	-222,15
478,43	-210,14
478,63	-212,69
478,829	-133,88
479,029	-209,1
479,229	-192,74
479,428	-180,2
479,628	-217,9
479,827	-226,11
480,027	-184,35
480,226	-296,92
480,426	-225,17
480,625	-254,69
480,825	-224,35
481,024	-235,82
481,224	-284,95
481,423	-218,49
481,623	-293,9
481,822	-192,33
482,021	-271,51
482,221	-249,92
482,42	-294,67
482,62	-257,71
482,819	-229,19
483,018	-252,59
483,218	-205,1
483,417	-272,86
483,616	-214,35
483,816	-299,41
484,015	-274,76
484,214	-254,67
484,414	-266,87
484,613	-314,3
484,812	-228,89
485,011	-177,03
485,211	-270,13
485,41	-282,96
485,609	-206,84
485,808	-247,83
486,008	-223,59
486,207	-235,51
486,406	-261,4
486,605	-235,52
486,804	-254,58
487,003	-245,08
487,203	-229,64
487,402	-242,49
487,601	-242,42
487,8	-288,68
487,999	-240,49
488,198	-264,23
488,397	-249,31
488,596	-268,11
488,795	-263,44
488,994	-300,16
489,193	-246,95
489,392	-312,88
489,591	-274,42
489,79	-258,96
489,989	-264,66
490,188	-284,06
490,387	-328,49
490,586	-254,29
490,785	-271,32
490,984	-289,43
491,183	-278,71
491,382	-294,46
491,581	-270,42
491,779	-284,18
491,978	-246,34
492,177	-314,31
492,376	-302,49
492,575	-274
492,774	-262,45
492,972	-234,09
493,171	-274,06
493,37	-257,92
493,569	-352,75
493,768	-332,69
493,966	-267,43
494,165	-315,88
494,364	-354,38
494,563	-304,12
494,761	-295,23
494,96	-320,66
495,159	-297,17
495,357	-247,74
495,556	-312,46
495,755	-276,56
495,953	-314,57
496,152	-279,83
496,35	-289,06
496,549	-301,21
496,748	-288,22
496,946	-277,92
497,145	-303,55
497,343	-258,85
497,542	-205,63
497,74	-284,52
497,939	-291,26
498,137	-278,56
498,336	-281,05
498,534	-296,02
498,733	-269,72
498,931	-249,62
499,13	-247,79
499,328	-270,15
499,527	-348,62
499,725	-233,48
499,924	-252,64
500,122	-230,19
500,32	-297,39
500,519	-310,57
500,717	-279,58
500,915	-233,16
501,114	-255,72
501,312	-293,3
501,51	-231,85
501,709	-276,74
501,907	-302,85
502,105	-227,31
502,304	-280,1
502,502	-286,39
502,7	-278,69
502,898	-264,66
503,097	-270,87
503,295	-253,95
503,493	-293,42
503,691	-308,81
503,889	-245,81
504,088	-226,31
504,286	-301,29
504,484	-301,13
504,682	-297,87
504,88	-298,53
505,078	-307,43
505,276	-293,59
505,474	-340,85
505,672	-277,26
505,871	-319,32
506,069	-335,53
506,267	-264,75
506,465	-296,09
506,663	-254,94
506,861	-263,81
507,059	-311,4
507,257	-297,09
507,455	-262,03
507,653	-289,2
507,851	-286,98
508,049	-249,45
508,246	-301,8
508,444	-326,22
508,642	-274,31
508,84	-302,13
509,038	-275,64
509,236	-328,85
509,434	-255,21
509,632	-343,48
509,829	-307,42
510,027	-267,08
510,225	-303,89
510,423	-268,33
510,621	-269,12
510,818	-324,53
511,016	-286,96
511,214	-295,2
511,412	-344,95
511,609	-254,46
511,807	-287,87
512,005	-268,44
512,203	-322,29
512,4	-273,57
512,598	-271,34
512,796	-250,33
512,993	-265,03
513,191	-251,67
513,389	-298,73
513,586	-321,29
513,784	-283,29
513,981	-343,44
514,179	-305,32
514,377	-278,82
514,574	-344,17
514,772	-274,19
514,969	-300,8
515,167	-242,51
515,364	-318,92
515,562	-258,7
515,759	-334,22
515,957	-236,1
516,154	-245,83
516,352	-329,55
516,549	-288,92
516,746	-252,98
516,944	-288,43
517,141	-273,17
517,339	-242,15
517,536	-280,53
517,733	-270,99
517,931	-238,53
518,128	-268,74
518,325	-282,92
518,523	-305,15
518,72	-304,08
518,917	-326,49
519,115	-301,74
519,312	-303,73
519,509	-341,29
519,707	-314,13
519,904	-264,97
520,101	-320,34
520,298	-319,56
520,495	-334,93
520,693	-254,6
520,89	-351,66
521,087	-280,96
521,284	-408,17
521,481	-281,84
521,678	-323,17
521,876	-309,42
522,073	-330,36
522,27	-319,64
522,467	-281,93
522,664	-304,67
522,861	-305,39
523,058	-337,24
523,255	-286,45
523,452	-314,15
523,649	-299,72
523,846	-288,22
524,043	-308,15
524,24	-330,7
524,437	-311,79
524,634	-339,17
524,831	-301,58
525,028	-313,87
525,225	-256,1
525,422	-302,73
525,619	-287,78
525,816	-278,83
526,013	-346,19
526,209	-342,89
526,406	-257,33
526,603	-294,98
526,8	-259,4
526,997	-299,81
527,194	-302,22
527,39	-323,05
527,587	-276,31
527,784	-302,47
527,981	-311,76
528,177	-307,27
528,374	-317,01
528,571	-376,65
528,768	-272,39
528,964	-291,31
529,161	-282,16
529,358	-341,56
529,554	-325,03
529,751	-294,53
529,948	-280,27
530,144	-324,52
530,341	-265,6
530,537	-312,64
530,734	-319,31
530,931	-322,17
531,127	-301,59
531,324	-293,29
531,52	-289,08
531,717	-266,06
531,913	-342,29
532,11	-274,57
532,306	-294,68
532,503	-246,95
532,699	-299,63
532,896	-395,33
533,092	-317,69
533,289	-260,06
533,485	-849,11
533,682	-322,35
533,878	-340,47
534,074	-314,67
534,271	-360,97
534,467	-395,93
534,664	-335,29
534,86	-293,79
535,056	-317,98
535,253	-327,2
535,449	-309,43
535,645	-310,92
535,841	-290,75
536,038	-322,92
536,234	-299,38
536,43	-344,23
536,626	-344,81
536,823	-307,47
537,019	-307,51
537,215	-314,37
537,411	-358,35
537,607	-316,02
537,804	-311,37
538	-302,92
538,196	-341,93
538,392	-275,79
538,588	-359,34
538,784	-262,84
538,98	-258,82
539,176	-291,91
539,373	-309,3
539,569	-309
539,765	-256,76
539,961	-302,16
540,157	-339,17
540,353	-249,87
540,549	-355,7
540,745	-360,37
540,941	-280,83
541,137	-293
541,333	-304,19
541,528	-305,31
541,724	-296,94
541,92	-315,31
542,116	-279,09
542,312	-266,14
542,508	-291,3
542,704	-304,92
542,9	-321,09
543,096	-287,74
543,291	-329,99
543,487	-303,68
543,683	-323,92
543,879	-354,35
544,075	-344,53
544,27	-287,96
544,466	-275,93
544,662	-316,16
544,858	-306,23
545,053	-319,44
545,249	-332,02
545,445	-309,38
545,64	-291,25
545,836	-278,43
546,032	-290,09
546,227	-255,26
546,423	-322,72
546,619	-275,67
546,814	-277,01
547,01	-243,24
547,205	-273,25
547,401	-273,53
547,597	-329,6
547,792	-276,72
547,988	-342,87
548,183	-270
548,379	-346,73
548,574	-307,91
548,77	-280,72
548,965	-306,56
549,161	-239,42
549,356	-278,42
549,552	-333,31
549,747	-314,09
549,942	-327,1
550,138	-268,63
550,333	-275,44
550,529	-290,52
550,724	-239,17
550,919	-301,44
551,115	-297,07
551,31	-315,57
551,505	-291,67
551,701	-300,27
551,896	-266,02
552,091	-324,61
552,287	-324,91
552,482	-302,82
552,677	-290,07
552,872	-242,99
553,067	-307,02
553,263	-305,09
553,458	-272,79
553,653	-324,12
553,848	-294,69
554,043	-291,18
554,239	-274,07
554,434	-295,08
554,629	-277,69
554,824	-285,18
555,019	-296,92
555,214	-269,58
555,409	-277,95
555,604	-312,42
555,799	-274,2
555,994	-279,87
556,189	-255,29
556,384	-291,64
556,579	-291,54
556,774	-265,24
556,969	-262,03
557,164	-241,12
557,359	-301,5
557,554	-276,78
557,749	-223,26
557,944	-266,37
558,139	-266,24
558,334	-222,94
558,529	-282,01
558,724	-258,57
558,918	-284,11
559,113	-261,62
559,308	-298,4
559,503	-238,6
559,698	-197,26
559,893	-234,04
560,087	-260,87
560,282	-201,86
560,477	-326,5
560,672	-241,37
560,866	-228,98
561,061	-279,43
561,256	-262,17
561,45	-272,04
561,645	-258,72
561,84	-262,95
562,034	-269,59
562,229	-260,49
562,424	-241,2
562,618	-270,06
562,813	-245,95
563,008	-202
563,202	-240,31
563,397	-223,24
563,591	-248,19
563,786	-244,19
563,98	-179,86
564,175	-246,34
564,369	-226,49
564,564	-301,14
564,758	-281,58
564,953	-216,64
565,147	-235,05
565,342	-230,6
565,536	-236,83
565,731	-280,9
565,925	-255,42
566,119	-218,15
566,314	-261,51
566,508	-143,72
566,703	-135,51
566,897	-13,73
567,091	25,07
567,286	44,24
567,48	4,28
567,674	8,11
567,868	34,49
568,063	-74,72
568,257	-98,18
568,451	-141,83
568,646	-181,92
568,84	-208,13
569,034	-182,62
569,228	-194
569,422	-230,84
569,616	-228,84
569,811	-181,22
570,005	-250,99
570,199	-235,31
570,393	-201,41
570,587	-266,59
570,781	-217,86
570,975	-249,19
571,169	-252,86
571,364	-298,27
571,558	-272,85
571,752	-250,62
571,946	-257,86
572,14	-258,38
572,334	-237,06
572,528	-222,55
572,722	-267,17
572,916	-212,71
573,109	-260,58
573,303	-231,1
573,497	-227,83
573,691	-267,61
573,885	-242,73
574,079	-213,61
574,273	-216,58
574,467	-226,84
574,661	-216,11
574,854	-232,22
575,048	-225,55
575,242	-203,76
575,436	-219,67
575,63	-190,32
575,823	-233,6
576,017	-204,61
576,211	-198,43
576,405	-227,07
576,598	-214,02
576,792	-228,93
576,986	-222,82
577,18	-225,8
577,373	-184,76
577,567	-212,3
577,761	-225,55
577,954	-198,16
578,148	-207,1
578,341	-213,55
578,535	-253,18
578,729	-222,73
578,922	-241,75
579,116	-227,79
579,309	-223,05
579,503	-188,32
579,696	-217,43
579,89	-264,7
580,083	-201,82
580,277	-188,61
580,47	-236,17
580,664	-232,19
580,857	-155,39
581,051	-172,92
581,244	-147,46
581,437	-156,49
581,631	-188,84
581,824	-199,63
582,018	-156,48
582,211	-126,32
582,404	-160,06
582,598	-201,08
582,791	-201,98
582,984	-136,4
583,178	-238,23
583,371	-159,13
583,564	-219,56
583,757	-191,19
583,951	-228,65
584,144	-183,44
584,337	-227,29
584,53	-190,28
584,723	-150,87
584,917	-195,07
585,11	-156,96
585,303	-212,15
585,496	-199,44
585,689	-129,28
585,882	-114,86
586,075	-57,36
586,268	37,88
586,462	421,44
586,655	2353,73
586,848	8080,05
587,041	18079,87
587,234	32636
587,427	47279,15
587,62	55119,69
587,813	59138,6
588,006	61275,55
588,199	59445,04
588,392	56544,12
588,585	52861,34
588,777	47847,91
588,97	43022,71
589,163	34808,01
589,356	21726,18
589,549	10930,76
589,742	6024,9
589,935	3842,95
590,128	2384,56
590,32	1562,53
590,513	1128,57
590,706	852,72
590,899	622
591,092	396,99
591,284	295,81
591,477	225,09
591,67	90,25
591,863	29
592,055	53,12
592,248	-123,03
592,441	-107,42
592,633	-99,56
592,826	-134,87
593,019	-147,35
593,211	-176,23
593,404	-108,1
593,596	-174,1
593,789	-159,33
593,982	-179,78
594,174	-146,9
594,367	-169,18
594,559	-206,45
594,752	-134,49
594,944	-178,28
595,137	-187,48
595,329	-191,4
595,522	-196,93
595,714	-186,54
595,907	-178,02
596,099	-186,13
596,292	-179,81
596,484	-182,83
596,676	-139,12
596,869	-198,25
597,061	-244,01
597,253	-153,76
597,446	-165,69
597,638	-184,56
597,83	-199,47
598,023	-241,97
598,215	-156,41
598,407	-171,4
598,6	-125,11
598,792	-210,63
598,984	-179,27
599,176	-203,4
599,369	-205,47
599,561	-254,08
599,753	-156,29
599,945	-226,86
600,137	-172,2
600,329	-209,23
600,522	-180,6
600,714	-154,78
600,906	-133,24
601,098	-214,32
601,29	-185,76
601,482	-185,11
601,674	-185,49
601,866	-214,17
602,058	-171,9
602,25	-210,76
602,442	-236,43
602,634	-192,42
602,826	-146,1
603,018	-163,29
603,21	-216,99
603,402	-201,08
603,594	-177,55
603,786	-192,46
603,978	-231,21
604,17	-172,39
604,362	-217,91
604,554	-207,74
604,745	-216,65
604,937	-189,86
605,129	-249,16
605,321	-158,3
605,513	-170,41
605,704	-165,95
605,896	-201,37
606,088	-188,58
606,28	-202,07
606,471	-219,31
606,663	-167,56
606,855	-140,82
607,047	-218,55
607,238	-181,35
607,43	-184,23
607,622	-218,51
607,813	-208,79
608,005	-180,61
608,197	-228,27
608,388	-177,75
608,58	-158,97
608,771	-229,05
608,963	-215,12
609,154	-201,1
609,346	-157,82
609,537	-204,59
609,729	-135,6
609,921	-222,03
610,112	-181,77
610,303	-186,77
610,495	-171,48
610,686	-207,43
610,878	-154,62
611,069	-130,89
611,261	-199,52
611,452	-158,15
611,643	-157,88
611,835	-167,93
612,026	-206,99
612,217	-192,52
612,409	-161,91
612,6	-195,05
612,791	-193,81
612,983	-201,58
613,174	-244,01
613,365	-177,67
613,557	-167,08
613,748	-149,21
613,939	-157,26
614,13	-113,77
614,321	-125,16
614,513	-166,89
614,704	-139,52
614,895	-115,79
615,086	-88,86
615,277	-126,44
615,468	-131,82
615,659	-204,13
615,851	-138,79
616,042	-172,14
616,233	-146,31
616,424	-149,55
616,615	-193
616,806	-171,85
616,997	-98,32
617,188	-129,89
617,379	-163,23
617,57	-187,31
617,761	-182,17
617,952	-202,91
618,143	-233,45
618,334	-152,81
618,524	-175,32
618,715	-149,89
618,906	-132,58
619,097	-132,87
619,288	-135,28
619,479	-196,48
619,67	-174,99
619,86	-149,95
620,051	-154,78
620,242	-191,05
620,433	-154,07
620,624	-211,61
620,814	-209,87
621,005	-202,68
621,196	-157,46
621,386	-207,98
621,577	-165,57
621,768	-235,46
621,958	-135,69
622,149	-157,83
622,34	-162,99
622,53	-172,91
622,721	-132,61
622,912	-218,04
623,102	-201,06
623,293	-198,5
623,483	-190,8
623,674	-175,77
623,864	-171,04
624,055	-131,36
624,245	-180,3
624,436	-127,58
624,626	-147,52
624,817	-171,72
625,007	-158,18
625,198	-139,58
625,388	-164,26
625,579	-231,24
625,769	-192,22
625,959	-182,64
626,15	-135,4
626,34	-154,91
626,531	-238,28
626,721	-208,97
626,911	-119,96
627,101	-169,82
627,292	-183,19
627,482	-162,02
627,672	-145,45
627,863	-153,52
628,053	-254,45
628,243	-177,42
628,433	-135,9
628,623	-204,23
628,814	-163,86
629,004	-174,62
629,194	-138,24
629,384	-160,69
629,574	-166,03
629,764	-223,26
629,955	-188,9
630,145	-186,57
630,335	-167,58
630,525	-188,95
630,715	-180,96
630,905	-211,96
631,095	-162,97
631,285	-185,82
631,475	-169,7
631,665	-274,59
631,855	-158,29
632,045	-161,89
632,235	-166,76
632,425	-166,24
632,615	-157,11
632,805	-185,29
632,994	-176,22
633,184	-201,79
633,374	-218,12
633,564	-174,63
633,754	-195,33
633,944	-197,75
634,133	-146,59
634,323	-195,84
634,513	-179,52
634,703	-251,66
634,893	-171,51
635,082	-186,88
635,272	-151,97
635,462	-176,83
635,651	-230,24
635,841	-167,21
636,031	-129,81
636,221	-154,21
636,41	-134,54
636,6	-139,04
636,789	-202,79
636,979	-173,48
637,169	-145,91
637,358	-141,3
637,548	-168,24
637,737	-161,97
637,927	-152,78
638,116	-169,2
638,306	-160,99
638,495	-178,79
638,685	-180,18
638,874	-156,31
639,064	-172,46
639,253	-181,53
639,443	-157,57
639,632	-134,21
639,822	-136,9
640,011	-176,65
640,2	-192,51
640,39	-166,53
640,579	-188,85
640,768	-134,35
640,958	-149,54
641,147	-131,12
641,336	-145,48
641,526	-168,71
641,715	-146,72
641,904	-201,13
642,093	-100,64
642,283	-195,8
642,472	-204,23
642,661	-139,95
642,85	-189,56
643,039	-131,96
643,228	-244,9
643,418	-179,67
643,607	-166,52
643,796	-187,48
643,985	-139,35
644,174	-169,77
644,363	-181,49
644,552	-137,21
644,741	-114,29
644,93	-122,23
645,119	-190,63
645,308	-144,07
645,497	-170,61
645,686	-182,88
645,875	-123,79
646,064	-155,75
646,253	-158,27
646,442	-167,21
646,631	-115,71
646,82	-132,09
647,009	-138,97
647,198	-173,47
647,387	-138,2
647,575	-132,29
647,764	-525,3
647,953	-157,43
648,142	-151,25
648,331	-172,56
648,519	-155,63
648,708	-178,99
648,897	-148,5
649,086	-151,65
649,274	-132,17
649,463	-114,76
649,652	-204,4
649,84	-142,9
650,029	-197,54
650,218	-142,52
650,406	-154,44
650,595	-145,95
650,784	-211,4
650,972	-165,52
651,161	-152,35
651,349	-137,17
651,538	-141,97
651,726	-172,37
651,915	-161,17
652,104	-157,16
652,292	-124,53
652,481	-156,37
652,669	-187,29
652,857	-151,05
653,046	-174,51
653,234	-127,81
653,423	-180,26
653,611	-127,79
653,8	-131,34
653,988	-147,35
654,176	-144,36
654,365	-115,47
654,553	-188,78
654,741	-168,43
654,93	-93,87
655,118	-124,29
655,306	-130,07
655,494	-72,46
655,683	-112,5
655,871	-143,72
656,059	-154,7
656,247	-113,62
656,436	-130,45
656,624	-162,63
656,812	-128,86
657	-129,14
657,188	-167,26
657,376	-112,62
657,564	-140,04
657,753	-129,16
657,941	-121,02
658,129	-156,3
658,317	-147,71
658,505	-87,19
658,693	-135,76
658,881	-111,66
659,069	-129,99
659,257	-126,5
659,445	-132,85
659,633	-133,05
659,821	-125,33
660,009	-164,94
660,197	-129,72
660,384	-140,03
660,572	-210,18
660,76	-128,55
660,948	-149,25
661,136	-115,07
661,324	-146,48
661,512	-171,88
661,699	-91,74
661,887	-170,37
662,075	-157,04
662,263	-142,5
662,451	-122,1
662,638	-145,47
662,826	-149,08
663,014	-180,13
663,201	-178,69
663,389	-128,87
663,577	-143,08
663,764	-172,68
663,952	-97,97
664,14	-137,42
664,327	-122,46
664,515	-163,77
664,702	-157,75
664,89	-152,7
665,078	-101,51
665,265	-113,42
665,453	-129,68
665,64	-103,7
665,828	-120,26
666,015	-148,92
666,203	-132,53
666,39	-134,88
666,578	-105,43
666,765	-115,2
666,952	-183,96
667,14	-148,19
667,327	-121,91
667,515	-120,89
667,702	-130,79
667,889	-115,31
668,077	-127,59
668,264	-174,5
668,451	-146,98
668,638	-125,39
668,826	-131,44
669,013	-134,94
669,2	-149,77
669,388	-174,27
669,575	-158,37
669,762	-83,38
669,949	-148,87
670,136	-619,95
670,323	-164
670,511	-106,87
670,698	-115,54
670,885	-143,78
671,072	-149,98
671,259	-145,6
671,446	-108,45
671,633	-112,22
671,82	-97,29
672,007	-89,71
672,194	-121,82
672,381	-105,3
672,568	-154,98
672,755	-121,34
672,942	-147,9
673,129	-121,29
673,316	-108,23
673,503	-165,11
673,69	-130,85
673,877	-164,47
674,064	-150,59
674,251	-120,59
674,437	-113,9
674,624	-154,21
674,811	-143,42
674,998	-99,42
675,185	-111,24
675,372	-153,89
675,558	-126,57
675,745	-134,82
675,932	-113,99
676,119	-71,54
676,305	-131,77
676,492	-132,89
676,679	-110,17
676,865	-158,89
677,052	-116,22
677,239	-93,97
677,425	-127,74
677,612	-187,84
677,798	-126,39
677,985	-142,7
678,172	-133,51
678,358	-137,78
678,545	-110,36
678,731	-99,23
678,918	-89,84
679,104	-114,4
679,291	-293,27
679,477	-111,22
679,664	-100,42
679,85	-106,79
680,036	-153,05
680,223	-82,18
680,409	-130,61
680,596	-109,01
680,782	-138,47
680,968	-141,96
681,155	-94,65
681,341	-137,62
681,527	-140,11
681,714	-129,02
681,9	-74,83
682,086	-119,03
682,272	-58,07
682,459	-95,16
682,645	-150,81
682,831	-130,32
683,017	-184,75
683,204	-143,1
683,39	-97,62
683,576	-160,72
683,762	-109,17
683,948	-110,8
684,134	-43,54
684,32	-94,13
684,506	-133,59
684,693	-145,54
684,879	-44,13
685,065	-99,67
685,251	-57,6
685,437	-66,59
685,623	-82,03
685,809	-82,18
685,995	-120,14
686,181	-68,98
686,366	-101,46
686,552	-69,76
686,738	-56,03
686,924	-101,6
687,11	-75,23
687,296	-129,2
687,482	-122,69
687,668	-51,35
687,853	-52
688,039	-72,65
688,225	-76,88
688,411	-77,87
688,597	-153,19
688,782	-103,34
688,968	-73,62
689,154	-97,88
689,34	-143,37
689,525	-154,34
689,711	-117,99
689,897	-168,66
690,082	-102,62
690,268	-125,73
690,454	-94,86
690,639	-114,73
690,825	-86,97
691,01	-103,31
691,196	-122,86
691,381	-73,94
691,567	-67,95
691,753	-93,41
691,938	-83,97
692,124	-77,09
692,309	-77,74
692,494	-92,68
692,68	-65,96
692,865	-86,39
693,051	-108,62
693,236	-135,31
693,422	-141,21
693,607	-92
693,792	-102,88
693,978	-103,61
694,163	-76,55
694,348	-27,25
694,534	1,12
694,719	73,17
694,904	103,09
695,089	91,86
695,275	78,3
695,46	69,74
695,645	-2,93
695,83	-13,63
696,016	-23,15
696,201	-39,21
696,386	-58,97
696,571	-92,36
696,756	-67,85
696,941	-99,63
697,126	-37,65
697,311	-75,57
697,497	-125,88
697,682	-69,4
697,867	-117,82
698,052	-102,43
698,237	-127,33
698,422	-79
698,607	-94,63
698,792	-82,89
698,977	-97,03
699,162	-122,89
699,347	-144,29
699,531	-75,82
699,716	-87,44
699,901	-59,68
700,086	-133,45
700,271	-101,44
700,456	-128,33
700,641	-96,54
700,825	-47,03
701,01	-132,75
701,195	-103,38
701,38	-89,36
701,565	-125,23
701,749	-105,22
701,934	-80,41
702,119	-143,39
702,303	-72,77
702,488	-88,56
702,673	-138,01
702,857	-109,11
703,042	-83,15
703,227	-98,67
703,411	-56,96
703,596	-128,33
703,78	-91,58
703,965	-81,1
704,15	-77,68
704,334	-76,3
704,519	-59,43
704,703	-16,82
704,888	11,19
705,072	37,7
705,257	45,62
705,441	48,53
705,625	-76,09
705,81	-61,16
705,994	-47,69
706,179	-98,7
706,363	-83,59
706,547	-85,1
706,732	-188,36
706,916	-83,78
707,1	-53,39
707,285	-77,63
707,469	-110,12
707,653	-103,03
707,837	-53,17
708,022	-108,69
708,206	-140,3
708,39	-58,12
708,574	-85,65
708,759	-109,26
708,943	-106,75
709,127	-96,99
709,311	-95,87
709,495	-85,74
709,679	-93,92
709,863	-111,34
710,047	-100,92
710,231	-104,61
710,415	-41,42
710,6	-118,26
710,784	-80,08
710,968	-101,94
711,152	-88,08
711,336	-69,61
711,519	-117,21
711,703	-54,82
711,887	-87,85
712,071	-72,93
712,255	-67,22
712,439	-146,53
712,623	-112,67
712,807	-108,22
712,991	-91,7
713,174	-60,84
713,358	-70,79
713,542	-84,76
713,726	-85,16
713,91	-120,31
714,093	-121,68
714,277	-76,17
714,461	-100,76
714,645	-46,04
714,828	-46,72
715,012	-74,1
715,196	-37,05
715,379	-117,85
715,563	-89,26
715,747	-84,35
715,93	-55,94
716,114	-50,05
716,297	-46,06
716,481	-38,49
716,664	-61,61
716,848	-49,11
717,031	-52,44
717,215	-2,52
717,398	-70,92
717,582	-58,46
717,765	-98,41
717,949	-32,24
718,132	-63,83
718,316	-8,52
718,499	-36,6
718,682	-102,33
718,866	-39,82
719,049	-79,28
719,233	-36,27
719,416	-72,99
719,599	-105,17
719,782	-44,38
719,966	-37,25
720,149	-48,57
720,332	-97,9
720,515	-45,13
720,699	-86,18
720,882	-78,82
721,065	-50,22
721,248	-115,69
721,431	-96,53
721,615	-30,11
721,798	-101,53
721,981	-59,73
722,164	-55,12
722,347	-86,92
722,53	-137,51
722,713	-29,9
722,896	-67,44
723,079	-49,91
723,262	-84,24
723,445	-97,26
723,628	-36,85
723,811	-48,96
723,994	-84,89
724,177	-61,79
724,36	-66,29
724,543	-34,73
724,726	-49,88
724,909	-74,66
725,091	-57,86
725,274	9,27
725,457	-38,86
725,64	4,99
725,823	-26,34
726,006	-3,19
726,188	-18,22
726,371	-100,68
726,554	-36,62
726,737	-57,66
726,919	-57,77
727,102	-75,99
727,285	-56,85
727,467	-68,99
727,65	-65,9
727,833	-58,51
728,015	-75,86
728,198	-69,84
728,38	-67,79
728,563	-52,08
728,746	-43,13
728,928	-57,42
729,111	-24,98
729,293	-59,18
729,476	-75,51
729,658	-41,55
729,841	-48,32
730,023	-129,73
730,205	-39,47
730,388	-80,45
730,57	-61,97
730,753	-72,61
730,935	-90,45
731,117	-123,67
731,3	-32,75
731,482	-49,07
731,664	-52,27
731,847	-54,18
732,029	-79,43
732,211	-83,87
732,394	-6,22
732,576	-52,47
732,758	-110,85
732,94	-61,66
733,122	-79,09
733,305	-110,94
733,487	-62,58
733,669	-71,3
733,851	-53,55
734,033	-70,64
734,215	-106,22
734,397	-79,91
734,58	-83,75
734,762	-45,91
734,944	-108,25
735,126	-24,69
735,308	-94,93
735,49	-38,01
735,672	-64,95
735,854	-33,1
736,036	-36,74
736,218	-16,44
736,399	59,6
736,581	73,55
736,763	98
736,945	72,67
737,127	139,89
737,309	0,28
737,491	39,19
737,672	23,85
737,854	-2,84
738,036	-43,46
738,218	-59,57
738,4	5,42
738,581	-63,88
738,763	-35,62
738,945	-51,75
739,127	-73,23
739,308	-58,27
739,49	-68,23
739,672	-71,17
739,853	-93,93
740,035	-49,9
740,216	-88,57
740,398	-100,58
740,58	-74
740,761	-81,15
740,943	-80,31
741,124	-53,95
741,306	-56,89
741,487	-59,06
741,669	-65,41
741,85	-19,01
742,032	-81,07
742,213	-67,17
742,394	-57,05
742,576	-82,76
742,757	-102,04
742,939	-78,04
743,12	-59,4
743,301	-51,42
743,483	-43,45
743,664	-18,05
743,845	-65,52
744,027	-70,61
744,208	-64,02
744,389	-80,95
744,57	-27,75
744,752	-94,94
744,933	-70,54
745,114	-41,85
745,295	-52,6
745,476	-83,15
745,657	-47,49
745,839	-21,36
746,02	-92,63
746,201	-85,16
746,382	-73,9
746,563	-127,69
746,744	-60,82
746,925	-42,25
747,106	-71,29
747,287	-85,72
747,468	-90,47
747,649	-84,69
747,83	-56,8
748,011	-48,41
748,192	-31,81
748,373	60,06
748,554	133,28
748,735	104,2
748,915	130,17
749,096	126,64
749,277	95,2
749,458	95,2
749,639	137
749,82	113,43
750	146,64
750,181	97,81
750,362	92,3
750,543	-10,95
750,723	-20,27
750,904	1,25
751,085	-31,61
751,265	1,35
751,446	-54,23
751,627	-53,04
751,807	-77,49
751,988	-52,06
752,169	-70,29
752,349	-55,16
752,53	-61,56
752,71	-30,77
752,891	-82,09
753,071	-67,28
753,252	-12,12
753,432	-45,3
753,613	-66,49
753,793	-98,01
753,974	-75,52
754,154	-88,31
754,334	-87,39
754,515	-48,77
754,695	-73,38
754,876	-98,91
755,056	-116,3
755,236	-50,57
755,417	-57,71
755,597	-114,27
755,777	-44,83
755,957	-83,09
756,138	-45,47
756,318	-72,15
756,498	-54,23
756,678	-49,88
756,859	-82,97
757,039	-54,94
757,219	-80,73
757,399	-56,3
757,579	-67,11
757,759	-17,28
757,939	-2,65
758,119	-58,75
758,3	-83,15
758,48	-54,89
758,66	5,12
758,84	15,3
759,02	-49,68
759,2	5,44
759,38	2,98
759,56	-54,82
759,74	4,66
759,919	8,09
760,099	-50,31
760,279	-35,82
760,459	-38,98
760,639	-28,96
760,819	-30,7
760,999	103,16
761,178	211,28
761,358	361,52
761,538	635,97
761,718	827,01
761,898	955,03
762,077	993,79
762,257	821,75
762,437	608,52
762,616	411,11
762,796	291,02
762,976	186,05
763,155	128,42
763,335	43,12
763,515	1,96
763,694	-25,97
763,874	13,06
764,053	-15,45
764,233	-8,65
764,413	99,32
764,592	79,47
764,772	93,41
764,951	118,84
765,131	135,96
765,31	89,72
765,489	74,49
765,669	46,81
765,848	2,03
766,028	7,33
766,207	3,77
766,386	-50,19
766,566	-15,82
766,745	-45,87
766,924	-38,68
767,104	-69,63
767,283	-17,34
767,462	-44,59
767,642	6,64
767,821	22,99
768	69,6
768,179	40,33
768,358	62,76
768,538	4,95
768,717	45,19
768,896	40,82
769,075	-38,14
769,254	41,52
769,433	-44,43
769,612	-54,01
769,791	-5,77
769,97	13,86
770,149	34,83
770,328	147,02
770,507	211,49
770,686	262,86
770,865	254,75
771,044	274,06
771,223	230
771,402	111,97
771,581	82,29
771,76	87,95
771,939	-17,21
772,118	31,03
772,297	-3,66
772,475	-43,06
772,654	-81,4
772,833	-69,18
773,012	-75,69
773,191	-49,02
773,369	-76,91
773,548	-106,78
773,727	30,58
773,906	-96,72
774,084	-46,2
774,263	-30,55
774,442	-60,01
774,62	-30,99
774,799	-27,02
774,977	-67,99
775,156	-68,02
775,335	-57,04
775,513	-23,62
775,692	-4
775,87	-141,42
776,049	0,74
776,227	-67,79
776,406	-81,59
776,584	-34,53
776,763	-47,27
776,941	6,75
777,119	2,63
777,298	-18,27
777,476	-89,6
777,655	-45,11
777,833	-23,41
778,011	-24,7
778,19	-35,47
778,368	-57,21
778,546	-53,48
778,725	-88,45
778,903	-26,84
779,081	-41,26
779,259	-49,6
779,437	-24,21
779,616	-39,97
779,794	-34,49
779,972	-99,55
780,15	-42,71
780,328	-22,17
780,506	-40,12
780,685	-14,71
780,863	-16,11
781,041	-2,1
781,219	-62,03
781,397	-94,53
781,575	-12,03
781,753	-25,95
781,931	-6,47
782,109	-40,17
782,287	-29,62
782,465	-54,27
782,643	-49,07
782,82	-34,05
782,998	-107,67
783,176	-83,22
783,354	-20,44
783,532	-44,64
783,71	-33,48
783,888	-48,11
784,065	-22,64
784,243	-39,73
784,421	-31,49
784,599	-61,78
784,776	-44,58
784,954	-33,47
785,132	-39,47
785,31	0,48
785,487	-50,21
785,665	-23,64
785,842	-50,89
786,02	-140,35
786,198	-31,83
786,375	-24,9
786,553	-66,15
786,73	-11,76
786,908	-22,73
787,085	-41,33
787,263	-22,36
787,44	-44,34
787,618	-74,96
787,795	-7,24
787,973	-5,4
788,15	-25,86
788,328	-44,53
788,505	-68,26
788,682	-34,09
788,86	-11,86
789,037	-31,84
789,215	-32,38
789,392	-15,12
789,569	-62,28
789,746	-67,15
789,924	-19,63
790,101	-42,94
790,278	-57,89
790,455	-9,92
790,633	-48,95
790,81	-49,29
790,987	14,81
791,164	-3,55
791,341	-10,11
791,518	-1,66
791,695	-30,08
791,873	-21,58
792,05	-36,88
792,227	-21,18
792,404	4,3
792,581	42,38
792,758	-13,15
792,935	158,43
793,112	103,89
793,289	144,12
793,466	113,77
793,643	110,72
793,82	90,89
793,996	12,41
794,173	-48,4
794,35	25,83
794,527	-47,57
794,704	-35,9
794,881	6,57
795,057	-36,83
795,234	5,32
795,411	-50,92
795,588	-21,03
795,765	3,65
795,941	-27,24
796,118	-36,35
796,295	-91,11
796,471	-4,07
796,648	-9,41
796,825	-61,98
797,001	-52,17
797,178	-58,4
797,354	-73,22
797,531	-31,73
797,708	-15,84
797,884	-39,56
798,061	2,37
798,237	33,23
798,414	-7,29
798,59	19,51
798,767	64,45
798,943	74,32
799,119	55,23
799,296	125,47
799,472	123,78
799,649	200,09
799,825	140,61
800,001	180,44
800,178	162,88
800,354	22,94
800,53	8,81
800,707	57,04
800,883	19,78
801,059	8,05
801,235	-60,36
801,411	13,96
801,588	10,92
801,764	-77,6
801,94	29,97
802,116	-28,43
802,292	36,54
802,468	-16,6
802,645	-38,23
802,821	-30,05
802,997	-35,62
803,173	-20,01
803,349	-16,37
803,525	-12,39
803,701	3,8
803,877	8,14
804,053	-30,94
804,229	-10,11
804,405	-40,43
804,581	-39,08
804,756	-11,65
804,932	14,78
805,108	-18,31
805,284	-3,53
805,46	-27,55
805,636	-9,16
805,812	-18,89
805,987	-18,43
806,163	-26,13
806,339	-110,67
806,515	10,33
806,69	1,72
806,866	-55,24
807,042	-23,37
807,217	-32
807,393	-15,7
807,569	5,35
807,744	-20,22
807,92	-48,73
808,096	69,76
808,271	98,26
808,447	164,61
808,622	197,84
808,798	182,36
808,973	228,46
809,149	260,69
809,324	357,19
809,5	484,79
809,675	589,18
809,851	626,16
810,026	592,29
810,201	518,64
810,377	371,83
810,552	230,26
810,728	110,66
810,903	72,5
811,078	52,69
811,253	49,16
811,429	70,46
811,604	48,68
811,779	-12,24
811,955	-23,96
812,13	-1
812,305	-14,51
812,48	14,54
812,655	-43,05
812,83	-45,18
813,006	-9,55
813,181	5,01
813,356	21,99
813,531	40,25
813,706	-29,14
813,881	-12,21
814,056	6,08
814,231	-26,64
814,406	1,07
814,581	10,01
814,756	-1,03
814,931	-10,85
815,106	-22,82
815,281	-18,72
815,456	-22,56
815,631	-11,14
815,805	34,58
815,98	161,44
816,155	227,26
816,33	314,9
816,505	415,5
816,68	413,15
816,854	487,23
817,029	480,91
817,204	549,98
817,379	634,85
817,553	755,54
817,728	870,56
817,903	817,99
818,077	675,07
818,252	526,65
818,427	342,88
818,601	151,86
818,776	165,79
818,95	101,64
819,125	45,14
819,299	54,54
819,474	15,42
819,648	20,02
819,823	-31,03
819,997	-21,22
820,172	34,74
820,346	5,78
820,521	0,64
820,695	22,61
820,87	-6,89
821,044	0,28
821,218	-55,41
821,393	-56,16
821,567	19,84
821,741	9,58
821,916	5,36
822,09	-36,13
822,264	-40,21
822,438	27,67
822,613	8,48
822,787	-21,02
822,961	1,54
823,135	-30,32
823,309	-7,94
823,483	26,42
823,658	-19,15
823,832	-38,43
824,006	50,55
824,18	23,68
824,354	42,72
824,528	101,92
824,702	41,52
824,876	116,46
825,05	37,27
825,224	29,68
825,398	36,03
825,572	77,68
825,746	50,26
825,92	-32,27
826,093	9,05
826,267	-31,9
826,441	-1,41
826,615	-71,04
826,789	-43,3
826,963	-55,47
827,136	-13,92
827,31	-2,35
827,484	20,36
827,658	11,79
827,831	10,75
828,005	-5,36
828,179	44,27
828,353	-29,61
828,526	-3,2
828,7	-4,53
828,873	17,32
829,047	10,98
829,221	-23,94
829,394	5,26
829,568	1,29
829,741	-13,24
829,915	-33,95
830,088	-68,68
830,262	-41,52
830,435	13,43
830,609	-21
830,782	-8,7
830,956	-0,16
831,129	-5,28
831,302	0,58
831,476	2
831,649	23,67
831,822	-21,87
831,996	-29,43
832,169	-45,51
832,342	40,24
832,516	-64,02
832,689	39,41
832,862	-30,28
833,035	-57,65
833,209	-41,93
833,382	-20,65
833,555	9,18
833,728	27,84
833,901	11,15
834,074	-35,95
834,247	-15,01
834,42	-22,96
834,594	12,21
834,767	-48,53
834,94	-11,44
835,113	-63,13
835,286	-0,29
835,459	-30,06
835,632	20,68
835,805	-0
835,977	-20,25
836,15	-44,94
836,323	12,75
836,496	-24,56
836,669	-1,42
836,842	-16,12
837,015	-50,57
837,188	-1,64
837,36	-57,01
837,533	-24,95
837,706	-4,01
837,879	-46,74
838,051	-8,29
838,224	-32,88
838,397	37,41
838,569	40,05
838,742	93,4
838,915	68,62
839,087	95,15
839,26	54,77
839,433	81,16
839,605	-37,87
839,778	115,99
839,95	24,98
840,123	46,42
840,295	106,95
840,468	143,86
840,64	150,09
840,813	101,49
840,985	139,73
841,158	112,07
841,33	82,42
841,502	22,39
841,675	11,46
841,847	-19,15
842,019	23,56
842,192	14,07
842,364	-25,09
842,536	11,29
842,709	-17,08
842,881	0,5
843,053	21,99
843,225	5,08
843,398	-36,7
843,57	-26,14
843,742	23,94
843,914	-35,47
844,086	-35,37
844,258	25,75
844,43	0,49
844,602	-59,13
844,775	13,54
844,947	-42,43
845,119	17,96
845,291	-57,36
845,463	-52,05
845,635	13,15
845,807	-12,2
845,979	-27,11
846,15	5,4
846,322	4,68
846,494	13,44
846,666	-1,79
846,838	-15,63
847,01	-7
847,182	-17,76
847,354	-30,48
847,525	-21,39
847,697	-20,13
847,869	25,91
848,041	-10,37
848,212	-49,03
848,384	13,84
848,556	-16,9
848,727	-12,96
848,899	0,07
849,071	-19,78
849,242	-18,44
849,414	-31,28
849,585	-5,7
849,757	-30,45
849,929	-35,66
850,1	36,78
850,272	-7,07
850,443	25,57
850,615	-12,05
850,786	19,22
850,958	15,15
851,129	-7,22
851,3	-82,51
851,472	-27,13
851,643	-28,38
851,815	-9,29
851,986	-28,33
852,157	-27,57
852,329	-97,63
852,5	9,6
852,671	-48,66
852,842	-12,93
853,014	7,98
853,185	-34,75
853,356	-12,77
853,527	-15,79
853,698	-21,08
853,87	2,24
854,041	-71,63
854,212	-15,44
854,383	-10,16
854,554	20,09
854,725	-91,83
854,896	-24,35
855,067	-24,64
855,238	-16,6
855,409	4,26
855,58	-12,89
855,751	-47,68
855,922	-31,31
856,093	-90,7
856,264	41,55
856,435	-1,92
856,606	-6,33
856,777	-38,9
856,948	4,61
857,118	13,37
857,289	4,76
857,46	-58,12
857,631	-2,81
857,802	-35,17
857,972	-19,22
858,143	-40,51
858,314	31,48
858,484	31,71
858,655	-3,57
858,826	-28,21
858,996	-2,61
859,167	-52,01
859,338	3,1
859,508	-24,37
859,679	17,43
859,849	6,15
860,02	-12,55
860,19	-11,46
860,361	-20,48
860,531	5,92
860,702	-115,05
860,872	-65,61
861,043	5,31
861,213	-84,81
861,384	3,29
861,554	31,16
861,724	50,17
861,895	-14,92
862,065	-67,56
862,235	-36,97
862,406	-6,65
862,576	23,29
862,746	-21,23
862,916	-4,74
863,087	-74,95
863,257	-15,54
863,427	30,25
863,597	-13,85
863,767	-38,99
863,937	48,49
864,108	-46,56
864,278	-6,49
864,448	-47,15
864,618	-41,66
864,788	38,38
864,958	-8,13
865,128	22,87
865,298	-11,19
865,468	-28,76
865,638	46,19
865,808	-10,78
865,978	-68,92
866,148	27,35
866,318	11,91
866,487	-59,59
866,657	-17,99
866,827	-68,12
866,997	19,36
867,167	-50,93
867,337	-10,46
867,506	-15,81
867,676	14,11
867,846	2,43
868,016	-16,97
868,185	10,98
868,355	-36,46
868,525	-29,97
868,694	-8,51
868,864	-54,61
869,034	-3,14
869,203	-26,5
869,373	-4,68
869,542	-51,65
869,712	-32,44
869,881	-27,87
870,051	18,42
870,22	-4,01
870,39	11,87
870,559	15,52
870,729	59
870,898	-14,28
871,068	-35,92
871,237	13,24
871,406	0,89
871,576	-1,18
871,745	16,86
871,914	27,2
872,084	-20,05
872,253	-13,72
872,422	16,33
872,591	-24,29
872,761	28,52
872,93	-287,45
873,099	25,39
873,268	-20,77
873,437	20,11
873,607	19,26
873,776	4,49
873,945	-8,89
874,114	37,36
874,283	-15,71
874,452	11,96
874,621	-18,76
874,79	-32,27
874,959	-4,9
875,128	-5,49
875,297	-14,01
875,466	-37,19
875,635	-35,63
875,804	-15,65
875,973	25,06
876,142	-69,29
876,31	14,59
876,479	-19,06
876,648	-27,59
876,817	18,67
876,986	-44,47
877,155	-12,86
877,323	26,59
877,492	-41,53
877,661	-53,98
877,829	-9,44
877,998	6,24
878,167	-7,83
878,335	7,16
878,504	31,61
878,673	7,09
878,841	49,18
879,01	0,8
879,178	5,29
879,347	-9,34
879,515	-9,05
879,684	-47,52
879,852	12,04
880,021	-5,08
880,189	-17,39
880,358	-5,73
880,526	-144,16
880,695	48,95
880,863	-50,9
881,031	-2,64
881,2	-42,25
881,368	20,21
881,536	-59,47
881,705	5,23
881,873	-9,83
882,041	-26,38
882,21	-33,24
882,378	-45,5
882,546	10,51
882,714	-8,17
882,882	27,33
883,05	-50,21
883,219	11,29
883,387	16,47
883,555	30,98
883,723	12,4
883,891	-16,79
884,059	22,46
884,227	-16,23
884,395	-23,44
884,563	-18,48
884,731	-11,53
884,899	-37,62
885,067	5,68
885,235	-4,87
885,403	-23,94
885,571	-15,35
885,739	-2,86
